/*--------------------------------*- C++ -*----------------------------------*\
  =========                 |
  \\      /  F ield         | OpenFOAM: The Open Source CFD Toolbox
   \\    /   O peration     | Website:  https://openfoam.org
    \\  /    A nd           | Version:  10
     \\/     M anipulation  |
\*---------------------------------------------------------------------------*/
FoamFile
{
    format      ascii;
    class       volScalarField;
    location    "6.5";
    object      ddt0(T);
}
// * * * * * * * * * * * * * * * * * * * * * * * * * * * * * * * * * * * * * //

dimensions      [0 0 -1 1 0 0 0];

internalField   nonuniform List<scalar> 
10000
(
5579.56
2525.83
2551.13
2597.15
2607.27
2609.33
2609.88
2610.07
2610.15
2610.19
2610.22
2610.24
2610.27
2610.29
2610.31
2610.32
2610.34
2610.36
2610.37
2610.39
2610.4
2610.41
2610.42
2610.43
2610.44
2610.45
2610.46
2610.47
2610.47
2610.48
2610.48
2610.49
2610.49
2610.49
2610.49
2610.5
2610.5
2610.5
2610.5
2610.5
2610.49
2610.49
2610.49
2610.49
2610.49
2610.48
2610.48
2610.48
2610.47
2610.47
2610.47
2610.46
2610.46
2610.46
2610.45
2610.45
2610.45
2610.44
2610.44
2610.43
2610.43
2610.43
2610.42
2610.42
2610.42
2610.41
2610.41
2610.41
2610.41
2610.4
2610.4
2610.4
2610.4
2610.4
2610.39
2610.39
2610.39
2610.39
2610.39
2610.39
2610.38
2610.38
2610.38
2610.38
2610.38
2610.38
2610.38
2610.38
2610.38
2610.37
2610.37
2610.37
2610.37
2610.36
2610.33
2610.12
2608.81
2601.9
2586.82
2963.88
2938.82
-780.573
-589.919
-479.942
-456.335
-451.776
-450.651
-450.26
-450.086
-449.985
-449.908
-449.842
-449.78
-449.721
-449.664
-449.611
-449.56
-449.511
-449.466
-449.423
-449.383
-449.346
-449.312
-449.28
-449.252
-449.226
-449.202
-449.181
-449.163
-449.146
-449.132
-449.12
-449.111
-449.103
-449.097
-449.093
-449.091
-449.09
-449.091
-449.093
-449.096
-449.101
-449.107
-449.113
-449.121
-449.129
-449.138
-449.148
-449.158
-449.168
-449.179
-449.19
-449.201
-449.212
-449.223
-449.234
-449.245
-449.256
-449.267
-449.278
-449.288
-449.298
-449.308
-449.318
-449.327
-449.336
-449.344
-449.352
-449.36
-449.368
-449.375
-449.382
-449.388
-449.394
-449.4
-449.405
-449.41
-449.415
-449.42
-449.424
-449.428
-449.432
-449.435
-449.439
-449.442
-449.445
-449.448
-449.45
-449.453
-449.455
-449.457
-449.46
-449.463
-449.473
-449.516
-449.769
-451.306
-459.339
-486.14
-415.817
2937.42
-631.989
-347.199
-208.258
-177.705
-171.552
-170.003
-169.461
-169.21
-169.054
-168.933
-168.824
-168.721
-168.623
-168.529
-168.439
-168.354
-168.273
-168.197
-168.125
-168.058
-167.996
-167.939
-167.886
-167.838
-167.794
-167.755
-167.719
-167.688
-167.661
-167.637
-167.617
-167.601
-167.587
-167.578
-167.571
-167.567
-167.565
-167.566
-167.57
-167.576
-167.583
-167.593
-167.604
-167.616
-167.63
-167.645
-167.66
-167.677
-167.694
-167.712
-167.73
-167.748
-167.767
-167.786
-167.804
-167.823
-167.841
-167.859
-167.877
-167.894
-167.911
-167.927
-167.943
-167.958
-167.973
-167.987
-168.001
-168.014
-168.026
-168.038
-168.049
-168.06
-168.07
-168.08
-168.089
-168.097
-168.105
-168.113
-168.12
-168.127
-168.133
-168.139
-168.145
-168.15
-168.155
-168.159
-168.164
-168.168
-168.171
-168.175
-168.179
-168.184
-168.193
-168.213
-168.309
-168.974
-173.027
-188.975
-173.257
2972.62
-539.717
-227.261
-79.383
-46.3624
-39.5174
-37.7383
-37.0941
-36.7796
-36.5751
-36.4093
-36.2588
-36.1163
-35.98
-35.8494
-35.7247
-35.6059
-35.4933
-35.3872
-35.2876
-35.1944
-35.1078
-35.0277
-34.954
-34.8865
-34.8252
-34.7699
-34.7204
-34.6766
-34.6383
-34.6053
-34.5775
-34.5545
-34.5362
-34.5224
-34.5128
-34.5073
-34.5054
-34.5071
-34.5121
-34.52
-34.5307
-34.5439
-34.5593
-34.5768
-34.596
-34.6168
-34.6389
-34.6622
-34.6863
-34.7112
-34.7366
-34.7624
-34.7885
-34.8146
-34.8406
-34.8665
-34.8921
-34.9173
-34.942
-34.9662
-34.9897
-35.0126
-35.0348
-35.0563
-35.0769
-35.0967
-35.1158
-35.134
-35.1513
-35.1679
-35.1836
-35.1986
-35.2127
-35.2261
-35.2388
-35.2507
-35.262
-35.2726
-35.2825
-35.2919
-35.3007
-35.309
-35.3168
-35.324
-35.3309
-35.3373
-35.3433
-35.349
-35.3543
-35.3596
-35.3653
-35.3727
-35.3848
-35.4045
-35.432
-35.534
-36.4503
-40.9926
-35.4246
2980.65
-519.788
-200.884
-50.6195
-16.8015
-9.67038
-7.76555
-7.04887
-6.68111
-6.43074
-6.2223
-6.03107
-5.84947
-5.6754
-5.50852
-5.34899
-5.19708
-5.05308
-4.91719
-4.78955
-4.67022
-4.5592
-4.45644
-4.36184
-4.27528
-4.1966
-4.12563
-4.06216
-4.00599
-3.9569
-3.91463
-3.87895
-3.84957
-3.82622
-3.80861
-3.79644
-3.78941
-3.78719
-3.78948
-3.79594
-3.80626
-3.8201
-3.83715
-3.85709
-3.87961
-3.90441
-3.93119
-3.95968
-3.98959
-4.02068
-4.0527
-4.08541
-4.1186
-4.15207
-4.18564
-4.21913
-4.25239
-4.28528
-4.31767
-4.34945
-4.38052
-4.4108
-4.44022
-4.46872
-4.49625
-4.52277
-4.54826
-4.5727
-4.59607
-4.61838
-4.63963
-4.65984
-4.67902
-4.69719
-4.71439
-4.73063
-4.74595
-4.7604
-4.774
-4.78679
-4.79882
-4.81012
-4.82073
-4.83069
-4.84004
-4.84882
-4.85705
-4.86478
-4.87205
-4.87893
-4.8856
-4.89259
-4.90148
-4.91617
-4.94314
-4.98357
-5.01757
-5.08672
-5.50054
-3.06104
2982.31
-515.926
-195.57
-44.652
-10.5544
-3.28919
-1.30575
-0.532329
-0.116809
0.177299
0.427326
0.658597
0.878871
1.09022
1.29295
1.48681
1.67145
1.84653
2.0118
2.16709
2.3123
2.44744
2.57254
2.68772
2.79312
2.88891
2.97531
3.05255
3.12089
3.18059
3.23195
3.27529
3.31093
3.3392
3.36048
3.37511
3.38349
3.38598
3.383
3.37493
3.36216
3.3451
3.32413
3.29964
3.27202
3.24162
3.20882
3.17394
3.13733
3.0993
3.06014
3.02014
2.97956
2.93865
2.89763
2.85671
2.81607
2.7759
2.73633
2.69752
2.65957
2.62259
2.58667
2.55187
2.51826
2.48589
2.45478
2.42495
2.39642
2.36919
2.34326
2.3186
2.2952
2.27303
2.25206
2.23225
2.21356
2.19594
2.17936
2.16377
2.1491
2.13533
2.1224
2.11026
2.09887
2.08818
2.07814
2.06873
2.05988
2.05155
2.04359
2.03565
2.02653
2.01286
1.98718
1.9405
1.88153
1.87286
2.13754
3.25257
2982.77
-514.961
-194.222
-43.0874
-8.86779
-1.52467
0.516732
1.33905
1.79917
2.13555
2.42628
2.69693
2.95527
3.20334
3.44135
3.669
3.88584
4.0915
4.28567
4.46813
4.63878
4.79761
4.94466
5.08004
5.20391
5.31649
5.418
5.50872
5.58894
5.65899
5.71922
5.76998
5.81167
5.84468
5.86945
5.88639
5.89596
5.89862
5.89482
5.88503
5.86971
5.84935
5.82439
5.7953
5.76252
5.72649
5.68762
5.64633
5.603
5.55801
5.5117
5.46441
5.41645
5.3681
5.31963
5.27129
5.22329
5.17585
5.12913
5.0833
5.0385
4.99484
4.95244
4.91138
4.87171
4.83351
4.7968
4.76161
4.72795
4.69583
4.66524
4.63616
4.60856
4.58242
4.55769
4.53434
4.51231
4.49155
4.47201
4.45363
4.43636
4.42014
4.40491
4.39061
4.3772
4.36461
4.35281
4.34173
4.33133
4.32155
4.31233
4.30347
4.29436
4.28299
4.26394
4.22704
4.1656
4.11402
4.27943
4.87245
2982.94
-514.618
-193.739
-42.507
-8.21662
-0.81718
1.27307
2.1403
2.64307
3.02059
3.3512
3.66049
3.95622
4.24034
4.51299
4.77378
5.02222
5.25785
5.48033
5.68942
5.885
6.06702
6.23553
6.39067
6.5326
6.66156
6.77781
6.88166
6.97345
7.05355
7.12235
7.18028
7.22778
7.26531
7.29336
7.31242
7.32302
7.32568
7.32092
7.30929
7.29133
7.26756
7.23854
7.20477
7.16677
7.12505
7.08008
7.03234
6.98227
6.9303
6.87684
6.82225
6.7669
6.71112
6.65522
6.59947
6.54413
6.48943
6.43558
6.38276
6.33113
6.28083
6.23198
6.18467
6.13898
6.09498
6.0527
6.01218
5.97342
5.93644
5.90123
5.86775
5.83599
5.8059
5.77745
5.75058
5.72524
5.70136
5.67889
5.65776
5.63791
5.61926
5.60176
5.58534
5.56993
5.55548
5.54192
5.52921
5.51727
5.50607
5.49555
5.48561
5.47603
5.46592
5.45228
5.4273
5.37758
5.30151
5.32108
5.78047
2983.01
-514.458
-193.506
-42.2126
-7.86946
-0.422377
1.71249
2.62241
3.1665
3.58417
3.95379
4.30094
4.63329
4.9527
5.25925
5.55247
5.8318
6.09673
6.34688
6.58198
6.80187
7.00652
7.19598
7.37036
7.52987
7.67476
7.80533
7.92192
8.0249
8.1147
8.19176
8.25656
8.30959
8.35138
8.38249
8.40346
8.4149
8.41738
8.41151
8.3979
8.37716
8.34989
8.3167
8.27817
8.23489
8.18742
8.13631
8.08209
8.02525
7.96629
7.90565
7.84376
7.78103
7.71783
7.6545
7.59136
7.5287
7.46677
7.40581
7.34603
7.28761
7.23069
7.17542
7.1219
7.07023
7.02046
6.97264
6.92682
6.88301
6.8412
6.80139
6.76356
6.72766
6.69367
6.66152
6.63117
6.60255
6.57559
6.55022
6.52637
6.50396
6.48292
6.46318
6.44466
6.42729
6.411
6.39573
6.3814
6.36797
6.35536
6.34353
6.33243
6.32197
6.31187
6.30079
6.28367
6.24575
6.16003
6.07528
6.57191
2983.05
-514.361
-193.356
-42.0138
-7.62477
-0.133855
2.04339
2.99455
3.57884
4.03569
4.44343
4.82756
5.19567
5.54955
5.88918
6.21402
6.52347
6.81696
7.09405
7.35447
7.59802
7.82467
8.03447
8.22754
8.4041
8.56442
8.70884
8.83772
8.95149
9.0506
9.13556
9.2069
9.26516
9.31093
9.34483
9.36748
9.37954
9.38166
9.3745
9.35876
9.33511
9.30421
9.26675
9.22338
9.17474
9.12146
9.06415
9.00341
8.93977
8.87379
8.80597
8.73678
8.66667
8.59606
8.52532
8.4548
8.38484
8.31571
8.24768
8.18096
8.11578
8.05228
7.99063
7.93094
7.87331
7.81782
7.76451
7.71343
7.66459
7.618
7.57364
7.53148
7.49149
7.45363
7.41782
7.38402
7.35216
7.32215
7.29391
7.26738
7.24246
7.21906
7.19712
7.17654
7.15724
7.13914
7.12218
7.10628
7.09138
7.0774
7.06429
7.05201
7.04051
7.02976
7.01931
7.00618
6.9765
6.88693
6.72354
7.31938
2983.08
-514.286
-193.235
-41.8488
-7.41689
0.115832
2.33399
3.32518
3.94861
4.44364
4.88854
5.3087
5.71164
6.09906
6.47086
6.82646
7.16517
7.48639
7.78965
8.07462
8.34112
8.58909
8.81857
9.02972
9.22274
9.39795
9.5557
9.69639
9.82049
9.9285
10.021
10.0985
10.1616
10.2111
10.2475
10.2716
10.284
10.2855
10.2769
10.2589
10.2322
10.1975
10.1557
10.1074
10.0533
9.99412
9.93057
9.86325
9.79279
9.71977
9.64476
9.56826
9.49078
9.41276
9.33462
9.25676
9.17952
9.10322
9.02814
8.95454
8.88262
8.81259
8.7446
8.67878
8.61524
8.55406
8.49531
8.43901
8.38519
8.33386
8.28498
8.23855
8.19451
8.15281
8.1134
8.07619
8.04112
8.0081
7.97704
7.94786
7.92046
7.89475
7.87064
7.84803
7.82684
7.80698
7.78837
7.77093
7.75459
7.73928
7.72493
7.71149
7.69893
7.68729
7.67657
7.66514
7.64074
7.54985
7.32273
8.02907
2983.1
-514.219
-193.126
-41.6973
-7.22435
0.348737
2.60655
3.63664
4.29812
4.83027
5.31126
5.76643
6.20318
6.62314
7.02616
7.41156
7.77862
8.12669
8.45526
8.76398
9.05264
9.32119
9.56966
9.7982
10.0071
10.1966
10.3671
10.5191
10.653
10.7695
10.869
10.9523
11.02
11.0728
11.1114
11.1366
11.1492
11.1499
11.1396
11.1191
11.0892
11.0506
11.0043
10.9509
10.8913
10.8262
10.7564
10.6824
10.6051
10.525
10.4428
10.359
10.2742
10.1887
10.1032
10.018
9.93356
9.85012
9.76803
9.68757
9.60898
9.53245
9.45816
9.38626
9.31686
9.25005
9.18589
9.12443
9.06568
9.00965
8.95631
8.90564
8.8576
8.81211
8.76913
8.72856
8.69033
8.65434
8.6205
8.58871
8.55887
8.53089
8.50465
8.48006
8.45702
8.43544
8.41522
8.39629
8.37855
8.36194
8.34639
8.33182
8.31823
8.30565
8.2943
8.28343
8.26239
8.17163
7.8937
8.6999
2983.12
-514.156
-193.022
-41.5532
-7.04058
0.571589
2.86785
3.93565
4.63402
5.20214
5.71812
6.20717
6.67665
7.12809
7.56127
7.97547
8.3699
8.74387
9.09684
9.42844
9.73844
10.0268
10.2935
10.5387
10.7627
10.9659
11.1486
11.3113
11.4546
11.579
11.6852
11.7738
11.8457
11.9014
11.9419
11.968
11.9804
11.9801
11.9679
11.9447
11.9114
11.8688
11.8178
11.7593
11.6941
11.623
11.5468
11.4662
11.382
11.2948
11.2054
11.1143
11.0221
10.9293
10.8364
10.7439
10.6522
10.5617
10.4726
10.3854
10.3001
10.2172
10.1366
10.0587
9.98348
9.91108
9.84158
9.775
9.71137
9.65069
9.59294
9.53809
9.48608
9.43686
9.39035
9.34647
9.30512
9.26621
9.22964
9.19529
9.16306
9.13284
9.10452
9.07799
9.05315
9.02988
9.00811
8.98772
8.96864
8.95077
8.93405
8.91841
8.90381
8.89032
8.87821
8.86731
8.8484
8.75872
8.4431
9.3301
2983.14
-514.096
-192.922
-41.4147
-6.8638
0.786156
3.11959
4.22386
4.95788
5.56077
6.11053
6.63229
7.13333
7.61511
8.07736
8.51928
8.94004
9.33891
9.71533
10.0689
10.3993
10.7066
10.9908
11.2519
11.4904
11.7066
11.9008
12.0737
12.2257
12.3576
12.4699
12.5635
12.639
12.6974
12.7395
12.7661
12.7781
12.7765
12.7622
12.7361
12.6992
12.6524
12.5967
12.5329
12.462
12.3848
12.3021
12.2148
12.1237
12.0294
11.9328
11.8344
11.7348
11.6346
11.5345
11.4347
11.3358
11.2382
11.1423
11.0482
10.9564
10.867
10.7803
10.6964
10.6154
10.5375
10.4627
10.3911
10.3226
10.2573
10.1952
10.1363
10.0803
10.0274
9.97746
9.93031
9.8859
9.84412
9.80485
9.76799
9.73341
9.70101
9.67065
9.64223
9.61563
9.59074
9.56744
9.54565
9.52527
9.50619
9.48836
9.47169
9.45613
9.44175
9.42886
9.41765
9.40002
9.31199
8.97153
9.91806
2983.16
-514.038
-192.827
-41.2816
-6.69374
0.992659
3.36193
4.50135
5.26973
5.90609
6.48835
7.04157
7.57295
8.08389
8.57403
9.04255
9.48855
9.91128
10.3101
10.6847
11.0347
11.36
11.6608
11.9371
12.1893
12.4177
12.6229
12.8052
12.9655
13.1042
13.2222
13.3202
13.3991
13.4597
13.503
13.5298
13.5411
13.5379
13.5212
13.4921
13.4514
13.4003
13.3397
13.2705
13.1938
13.1104
13.0212
12.9272
12.8291
12.7277
12.6238
12.5181
12.4112
12.3037
12.1962
12.0893
11.9832
11.8786
11.7758
11.675
11.5767
11.481
11.3881
11.2983
11.2116
11.1282
11.0482
10.9716
10.8983
10.8285
10.7621
10.6991
10.6393
10.5828
10.5294
10.479
10.4316
10.387
10.3451
10.3058
10.2689
10.2344
10.202
10.1717
10.1434
10.117
10.0922
10.0691
10.0474
10.0272
10.0083
9.99064
9.97418
9.95895
9.9453
9.93361
9.9167
9.83076
9.47719
10.4626
2983.18
-513.983
-192.735
-41.1539
-6.53056
1.19086
3.59457
4.76773
5.56909
6.23757
6.851
7.43437
7.99481
8.53366
9.05049
9.54443
10.0145
10.46
10.8803
11.2748
11.6434
11.9859
12.3024
12.593
12.8582
13.0982
13.3135
13.5047
13.6726
13.8176
13.9408
14.0428
14.1245
14.1869
14.231
14.2577
14.268
14.263
14.2437
14.2112
14.1667
14.111
14.0453
13.9706
13.888
13.7984
13.7027
13.6019
13.4968
13.3883
13.2771
13.1641
13.0499
12.9351
12.8203
12.7062
12.5931
12.4815
12.3718
12.2644
12.1596
12.0576
11.9587
11.863
11.7707
11.6819
11.5967
11.5151
11.4372
11.3629
11.2923
11.2252
11.1617
11.1016
11.0448
10.9913
10.9409
10.8935
10.849
10.8073
10.7682
10.7315
10.6973
10.6652
10.6352
10.6072
10.581
10.5566
10.5338
10.5124
10.4925
10.4739
10.4566
10.4406
10.4262
10.414
10.3974
10.314
9.95744
10.9629
2983.2
-513.93
-192.647
-41.0319
-6.37455
1.38041
3.81708
5.02254
5.85544
6.55461
7.19783
7.81
8.39817
8.96363
9.5059
10.024
10.5171
10.9842
11.4248
11.8382
12.2244
12.5831
12.9145
13.2186
13.4959
13.7467
13.9715
14.1709
14.3457
14.4966
14.6243
14.7298
14.814
14.8778
14.9222
14.9484
14.9574
14.9503
14.9282
14.8922
14.8435
14.7831
14.7123
14.632
14.5433
14.4474
14.3451
14.2374
14.1253
14.0097
13.8913
13.771
13.6494
13.5274
13.4054
13.284
13.1639
13.0454
12.929
12.815
12.7037
12.5955
12.4906
12.3891
12.2913
12.1971
12.1068
12.0204
11.9378
11.8592
11.7843
11.7133
11.646
11.5824
11.5224
11.4657
11.4125
11.3624
11.3153
11.2713
11.2299
11.1913
11.1551
11.1213
11.0897
11.0602
11.0327
11.007
10.983
10.9606
10.9398
10.9203
10.9022
10.8855
10.8704
10.8576
10.8411
10.7605
10.4095
11.4186
2983.21
-513.88
-192.564
-40.9157
-6.22596
1.56099
4.02909
5.26533
6.12828
6.8567
7.52827
8.16783
8.78237
9.37311
9.93953
10.4806
10.9954
11.483
11.9428
12.3741
12.7768
13.1508
13.4961
13.8128
14.1014
14.3622
14.5958
14.8028
14.9839
15.1399
15.2717
15.3801
15.4663
15.531
15.5755
15.6009
15.6082
15.5987
15.5735
15.5338
15.4807
15.4155
15.3393
15.2533
15.1586
15.0562
14.9472
14.8327
14.7136
14.5908
14.4651
14.3375
14.2087
14.0794
13.9502
13.8218
13.6946
13.5693
13.4461
13.3256
13.208
13.0937
12.9828
12.8756
12.7723
12.6729
12.5775
12.4863
12.3992
12.3162
12.2372
12.1623
12.0914
12.0243
11.961
11.9014
11.8452
11.7925
11.743
11.6966
11.6532
11.6125
11.5745
11.539
11.5059
11.475
11.4461
11.4192
11.3941
11.3708
11.349
11.3287
11.3099
11.2925
11.2768
11.2635
11.2469
11.1696
10.8307
11.8296
2983.23
-513.833
-192.485
-40.8055
-6.08499
1.73234
4.2303
5.49578
6.38725
7.14341
7.84186
8.50738
9.14689
9.76155
10.3508
10.9136
11.4489
11.9558
12.4336
12.8817
13.3
13.6882
14.0465
14.3749
14.674
14.944
15.1856
15.3994
15.5862
15.7468
15.8821
15.993
16.0805
16.1459
16.19
16.2142
16.2196
16.2073
16.1788
16.1351
16.0775
16.0073
15.9256
15.8337
15.7328
15.6239
15.5082
15.3868
15.2606
15.1306
14.9978
14.8629
14.7268
14.5903
14.454
14.3185
14.1844
14.0522
13.9225
13.7955
13.6716
13.5512
13.4345
13.3216
13.2129
13.1083
13.008
12.912
12.8204
12.7331
12.6502
12.5714
12.4969
12.4265
12.36
12.2974
12.2384
12.1831
12.1312
12.0825
12.037
11.9944
11.9547
11.9175
11.8829
11.8506
11.8205
11.7924
11.7663
11.742
11.7194
11.6984
11.6789
11.6609
11.6446
11.6307
11.614
11.5403
11.2186
12.196
2983.24
-513.788
-192.41
-40.7015
-5.95179
1.8943
4.42051
5.71363
6.63207
7.41444
8.13828
8.8283
9.49135
10.1286
10.7393
11.3225
11.877
12.402
12.8967
13.3605
13.7933
14.1947
14.565
14.9043
15.213
15.4914
15.7403
15.9602
16.1521
16.3166
16.4548
16.5676
16.6562
16.7216
16.765
16.7876
16.7907
16.7755
16.7433
16.6954
16.6331
16.5577
16.4705
16.3726
16.2654
16.1499
16.0275
15.8991
15.7658
15.6287
15.4886
15.3465
15.2032
15.0595
14.916
14.7735
14.6326
14.4937
14.3573
14.224
14.0939
13.9675
13.845
13.7266
13.6125
13.5028
13.3976
13.297
13.2009
13.1095
13.0225
12.9401
12.862
12.7883
12.7187
12.6531
12.5915
12.5336
12.4794
12.4285
12.381
12.3365
12.295
12.2563
12.2202
12.1866
12.1553
12.1261
12.099
12.0738
12.0504
12.0287
12.0086
11.99
11.9733
11.9588
11.942
11.8722
11.5713
12.5184
2983.26
-513.746
-192.34
-40.6036
-5.82643
2.04677
4.5996
5.91875
6.86258
7.66962
8.41733
9.13036
9.81552
10.4739
11.1047
11.707
12.2795
12.8214
13.3318
13.8102
14.2564
14.6701
15.0515
15.4006
15.718
16.0041
16.2595
16.4849
16.681
16.8489
16.9894
17.1037
17.1927
17.2578
17.3001
17.3208
17.3212
17.3028
17.2667
17.2144
17.1472
17.0665
16.9735
16.8695
16.7559
16.6339
16.5046
16.3692
16.2288
16.0845
15.9372
15.7879
15.6374
15.4865
15.3361
15.1866
15.0388
14.8933
14.7505
14.6108
14.4746
14.3422
14.214
14.0902
13.9708
13.8561
13.7461
13.6409
13.5405
13.4449
13.3541
13.268
13.1865
13.1095
13.0368
12.9685
12.9042
12.8438
12.7872
12.7343
12.6848
12.6385
12.5953
12.5551
12.5176
12.4827
12.4502
12.42
12.392
12.366
12.3418
12.3194
12.2987
12.2797
12.2625
12.2476
12.2306
12.1648
11.8872
12.7972
2983.27
-513.707
-192.274
-40.5119
-5.70891
2.18973
4.76752
6.1111
7.07872
7.90886
8.67892
9.41348
10.1193
10.7974
11.447
12.067
12.6563
13.2138
13.7388
14.2307
14.6892
15.1141
15.5056
15.8637
16.189
16.4819
16.743
16.9731
17.173
17.3435
17.4859
17.601
17.6901
17.7544
17.7951
17.8135
17.811
17.789
17.7489
17.6919
17.6196
17.5334
17.4345
17.3243
17.2043
17.0755
16.9394
16.797
16.6495
16.498
16.3435
16.187
16.0294
15.8714
15.714
15.5576
15.4031
15.251
15.1017
14.9558
14.8136
14.6754
14.5416
14.4123
14.2878
14.1681
14.0534
13.9437
13.8391
13.7395
13.6448
13.5551
13.4702
13.39
13.3144
13.2433
13.1764
13.1136
13.0548
12.9998
12.9484
12.9004
12.8556
12.8138
12.775
12.7389
12.7053
12.6741
12.6452
12.6184
12.5935
12.5706
12.5493
12.5298
12.5122
12.4969
12.4798
12.4182
12.165
13.0334
2983.28
-513.67
-192.213
-40.4263
-5.59921
2.3232
4.92431
6.29068
7.28051
8.13219
8.92307
9.67767
10.4027
11.0991
11.7661
12.4026
13.0073
13.5792
14.1176
14.6219
15.0916
15.5268
15.9274
16.2936
16.6259
16.9248
17.1909
17.425
17.6279
17.8005
17.9441
18.0596
18.1482
18.2113
18.25
18.2658
18.2601
18.2343
18.1898
18.128
18.0504
17.9585
17.8536
17.7372
17.6105
17.475
17.332
17.1826
17.028
16.8693
16.7077
16.544
16.3793
16.2143
16.0499
15.8868
15.7256
15.5669
15.4113
15.2593
15.1111
14.9672
14.8278
14.6932
14.5636
14.4391
14.3198
14.2057
14.0968
13.9933
13.8949
13.8017
13.7135
13.6302
13.5517
13.4778
13.4084
13.3433
13.2823
13.2253
13.172
13.1223
13.0759
13.0328
12.9927
12.9554
12.9207
12.8886
12.8588
12.8313
12.8058
12.7823
12.7606
12.7407
12.7227
12.707
12.6898
12.6323
12.4039
13.2278
2983.3
-513.636
-192.156
-40.3468
-5.49725
2.44726
5.07005
6.4576
7.46804
8.33971
9.14988
9.92304
10.6658
11.3792
12.0622
12.7138
13.3327
13.9179
14.4685
14.9839
15.4639
15.9082
16.317
16.6904
17.0289
17.333
17.6033
17.8406
18.0459
18.2201
18.3643
18.4796
18.5673
18.6287
18.6652
18.678
18.6688
18.6388
18.5897
18.5229
18.4398
18.3421
18.2311
18.1083
17.975
17.8327
17.6827
17.5263
17.3646
17.1988
17.03
16.8592
16.6874
16.5155
16.3442
16.1744
16.0066
15.8415
15.6796
15.5215
15.3675
15.2179
15.0731
14.9333
14.7987
14.6694
14.5455
14.4271
14.3142
14.2068
14.1047
14.0081
13.9166
13.8303
13.749
13.6725
13.6006
13.5332
13.4701
13.4112
13.3561
13.3047
13.2569
13.2124
13.171
13.1326
13.0969
13.0639
13.0333
13.0051
12.979
12.955
