/*--------------------------------*- C++ -*----------------------------------*\
  =========                 |
  \\      /  F ield         | OpenFOAM: The Open Source CFD Toolbox
   \\    /   O peration     | Website:  https://openfoam.org
    \\  /    A nd           | Version:  10
     \\/     M anipulation  |
\*---------------------------------------------------------------------------*/
FoamFile
{
    format      ascii;
    class       volScalarField;
    location    "3";
    object      ddt0(T);
}
// * * * * * * * * * * * * * * * * * * * * * * * * * * * * * * * * * * * * * //

dimensions      [0 0 -1 1 0 0 0];

internalField   nonuniform List<scalar> 
10000
(
7447.68
3809.83
3736.79
3793.99
3814.15
3819.74
3821.34
3821.86
3822.08
3822.21
3822.31
3822.39
3822.47
3822.54
3822.6
3822.65
3822.7
3822.75
3822.78
3822.81
3822.84
3822.86
3822.87
3822.88
3822.88
3822.89
3822.88
3822.88
3822.87
3822.86
3822.85
3822.83
3822.82
3822.8
3822.78
3822.76
3822.75
3822.73
3822.71
3822.69
3822.68
3822.66
3822.65
3822.63
3822.62
3822.6
3822.59
3822.58
3822.57
3822.56
3822.55
3822.54
3822.54
3822.53
3822.52
3822.52
3822.51
3822.51
3822.51
3822.5
3822.5
3822.5
3822.5
3822.49
3822.49
3822.49
3822.49
3822.49
3822.49
3822.49
3822.49
3822.49
3822.49
3822.49
3822.48
3822.48
3822.48
3822.48
3822.48
3822.48
3822.48
3822.48
3822.48
3822.48
3822.48
3822.48
3822.48
3822.48
3822.48
3822.47
3822.47
3822.47
3822.47
3822.44
3822.35
3821.92
3820.08
3814.44
3833.43
4521.54
4389.13
-708.884
-708.272
-558.676
-505.813
-490.706
-486.349
-484.912
-484.295
-483.924
-483.638
-483.39
-483.166
-482.962
-482.778
-482.613
-482.467
-482.34
-482.232
-482.141
-482.068
-482.011
-481.968
-481.94
-481.925
-481.922
-481.929
-481.946
-481.97
-482.002
-482.04
-482.082
-482.128
-482.177
-482.229
-482.281
-482.334
-482.387
-482.44
-482.491
-482.541
-482.59
-482.636
-482.68
-482.722
-482.761
-482.797
-482.831
-482.862
-482.891
-482.918
-482.942
-482.964
-482.984
-483.001
-483.017
-483.031
-483.044
-483.055
-483.065
-483.073
-483.081
-483.087
-483.093
-483.098
-483.102
-483.105
-483.108
-483.111
-483.113
-483.115
-483.117
-483.118
-483.12
-483.121
-483.122
-483.123
-483.124
-483.125
-483.126
-483.128
-483.129
-483.131
-483.133
-483.135
-483.137
-483.14
-483.143
-483.146
-483.149
-483.154
-483.16
-483.175
-483.221
-483.404
-484.172
-487.315
-498.34
-518.633
-378.355
4302.88
-738.207
-619.437
-414.156
-341.964
-320.819
-314.558
-312.432
-311.483
-310.892
-310.425
-310.016
-309.645
-309.307
-309.001
-308.727
-308.485
-308.274
-308.093
-307.942
-307.82
-307.724
-307.654
-307.607
-307.581
-307.575
-307.587
-307.614
-307.655
-307.707
-307.77
-307.84
-307.917
-307.998
-308.084
-308.171
-308.259
-308.348
-308.435
-308.521
-308.604
-308.684
-308.761
-308.834
-308.903
-308.969
-309.029
-309.086
-309.138
-309.186
-309.23
-309.27
-309.307
-309.34
-309.369
-309.396
-309.419
-309.44
-309.459
-309.475
-309.489
-309.502
-309.512
-309.522
-309.53
-309.537
-309.543
-309.548
-309.552
-309.556
-309.559
-309.561
-309.564
-309.566
-309.568
-309.57
-309.572
-309.573
-309.575
-309.577
-309.58
-309.582
-309.585
-309.588
-309.591
-309.595
-309.599
-309.604
-309.609
-309.615
-309.622
-309.631
-309.649
-309.695
-309.85
-310.43
-312.641
-320.426
-340.513
-331.543
4345.41
-616.176
-444.754
-215.985
-135.055
-110.87
-103.511
-100.913
-99.6938
-98.9012
-98.2615
-97.6959
-97.1818
-96.7134
-96.2893
-95.9093
-95.5733
-95.2806
-95.0303
-94.8212
-94.6515
-94.5191
-94.4218
-94.357
-94.3222
-94.3146
-94.3313
-94.3698
-94.4271
-94.5007
-94.5881
-94.6866
-94.7942
-94.9085
-95.0277
-95.1499
-95.2735
-95.3971
-95.5194
-95.6392
-95.7556
-95.868
-95.9756
-96.0779
-96.1747
-96.2656
-96.3506
-96.4297
-96.5027
-96.57
-96.6315
-96.6877
-96.7385
-96.7845
-96.8258
-96.8628
-96.8957
-96.9249
-96.9508
-96.9735
-96.9934
-97.0107
-97.0258
-97.0388
-97.05
-97.0596
-97.0679
-97.0749
-97.0809
-97.0861
-97.0905
-97.0943
-97.0976
-97.1006
-97.1033
-97.1059
-97.1083
-97.1109
-97.1135
-97.1162
-97.1193
-97.1226
-97.1263
-97.1304
-97.1351
-97.1403
-97.1461
-97.1525
-97.1597
-97.1678
-97.1773
-97.1894
-97.2087
-97.2489
-97.3546
-97.6762
-98.7372
-102.2
-111.258
-115.389
4361.41
-572.119
-382.962
-145.768
-61.3493
-35.7672
-27.7997
-24.8752
-23.4307
-22.4526
-21.6474
-20.9302
-20.2769
-19.6812
-19.1418
-18.6586
-18.2313
-17.8592
-17.5413
-17.2757
-17.0603
-16.8925
-16.7695
-16.6879
-16.6445
-16.6359
-16.6584
-16.7085
-16.7828
-16.8779
-16.9905
-17.1175
-17.2559
-17.403
-17.5563
-17.7134
-17.8722
-18.031
-18.188
-18.3419
-18.4914
-18.6356
-18.7737
-18.9051
-19.0293
-19.146
-19.2551
-19.3565
-19.4502
-19.5365
-19.6154
-19.6874
-19.7527
-19.8116
-19.8646
-19.912
-19.9543
-19.9917
-20.0248
-20.0539
-20.0794
-20.1017
-20.121
-20.1377
-20.1521
-20.1644
-20.175
-20.184
-20.1917
-20.1982
-20.2039
-20.2087
-20.213
-20.2167
-20.2202
-20.2234
-20.2266
-20.2297
-20.233
-20.2365
-20.2403
-20.2445
-20.2491
-20.2543
-20.2602
-20.2667
-20.274
-20.2822
-20.2912
-20.3014
-20.3131
-20.3275
-20.348
-20.384
-20.4602
-20.641
-21.107
-22.3634
-25.2444
-27.3504
4365.98
-559.391
-364.785
-124.723
-38.9409
-12.6992
-4.36738
-1.19681
0.444952
1.59684
2.56083
3.42464
4.21297
4.93209
5.58318
6.16635
6.68185
7.13046
7.51363
7.8334
8.09242
8.29379
8.44105
8.53801
8.58873
8.5974
8.5683
8.50569
8.41379
8.29674
8.15849
8.00284
7.83337
7.65341
7.46604
7.27407
7.08004
6.8862
6.69454
6.50676
6.32432
6.14839
5.97996
5.81976
5.66833
5.52604
5.39308
5.2695
5.15525
5.05014
4.9539
4.86622
4.78669
4.71489
4.65035
4.5926
4.54114
4.4955
4.45518
4.41972
4.38868
4.3616
4.3381
4.31777
4.30027
4.28525
4.2724
4.26143
4.25209
4.24411
4.23729
4.23141
4.22628
4.22173
4.21759
4.21372
4.20997
4.20621
4.20232
4.19818
4.19368
4.18871
4.18318
4.17698
4.17004
4.16226
4.15356
4.14386
4.13305
4.12101
4.10741
4.09137
4.0704
4.03779
3.97779
3.8585
3.62166
3.1641
2.43391
1.86296
4367.32
-555.664
-359.344
-118.253
-31.8815
-5.27889
3.30673
6.68173
8.50314
9.8194
10.9357
11.9407
12.8592
13.6972
14.4557
15.1349
15.7349
16.2567
16.702
17.0731
17.3732
17.606
17.7754
17.886
17.9426
17.9499
17.9131
17.8372
17.7269
17.5873
17.423
17.2383
17.0375
16.8246
16.603
16.3762
16.147
15.9182
15.6921
15.4706
15.2554
15.048
14.8494
14.6606
14.4822
14.3146
14.158
14.0124
13.8779
13.7541
13.6408
13.5375
13.4439
13.3594
13.2834
13.2155
13.1549
13.1012
13.0537
13.012
12.9755
12.9436
12.916
12.8921
12.8715
12.8538
12.8387
12.8258
12.8149
12.8055
12.7975
12.7907
12.7847
12.7794
12.7746
12.7701
12.7658
12.7615
12.7571
12.7523
12.7472
12.7415
12.7352
12.7282
12.7202
12.7113
12.7014
12.6903
12.6779
12.6642
12.6489
12.6315
12.6105
12.5816
12.5344
12.4484
12.2962
12.0704
11.8936
11.925
4367.78
-554.396
-357.445
-115.906
-29.215
-2.36775
6.42231
9.97933
11.9683
13.4407
14.7027
15.8429
16.8859
17.8376
18.6987
19.4693
20.1495
20.7406
21.2445
21.6638
22.0021
22.2635
22.4529
22.5751
22.6357
22.6403
22.5945
22.5041
22.3747
22.2118
22.0208
21.8068
21.5744
21.3283
21.0725
20.8108
20.5467
20.283
20.0225
19.7675
19.5199
19.2812
19.0528
18.8357
18.6306
18.4378
18.2578
18.0906
17.9359
17.7937
17.6636
17.545
17.4374
17.3404
17.2531
17.1751
17.1055
17.0439
16.9894
16.9415
16.8996
16.863
16.8313
16.8038
16.7802
16.76
16.7427
16.7279
16.7154
16.7047
16.6955
16.6877
16.6809
16.6749
16.6695
16.6645
16.6597
16.6549
16.6499
16.6447
16.639
16.6328
16.6258
16.6179
16.6091
16.5993
16.5882
16.5759
16.5622
16.547
16.5301
16.5114
16.49
16.4635
16.4255
16.3609
16.2454
16.0692
15.9631
16.2775
4367.98
-553.824
-356.556
-114.753
-27.8387
-0.793908
8.17651
11.9016
14.0483
15.6689
17.0695
18.3383
19.4997
20.5592
21.5175
22.3744
23.1303
23.7863
24.3447
24.8085
25.1818
25.4691
25.6758
25.8074
25.8702
25.8703
25.8141
25.7081
25.5586
25.3717
25.1535
24.9096
24.6454
24.366
24.0759
23.7794
23.4803
23.1819
22.8873
22.599
22.3192
22.0496
21.7917
21.5466
21.315
21.0975
20.8944
20.7057
20.5313
20.3709
20.2241
20.0904
19.9692
19.8597
19.7614
19.6734
19.5951
19.5256
19.4642
19.4102
19.363
19.3218
19.286
19.2551
19.2286
19.2058
19.1863
19.1697
19.1556
19.1436
19.1334
19.1246
19.1171
19.1104
19.1045
19.099
19.0937
19.0885
19.0831
19.0774
19.0713
19.0645
19.057
19.0485
19.039
19.0283
19.0164
19.003
18.9881
18.9716
18.9534
18.9333
18.911
18.8853
18.8523
18.8009
18.7046
18.5292
18.3666
18.8946
4368.11
-553.462
-355.977
-113.973
-26.871
0.349146
9.48541
13.3677
15.6633
17.424
18.9555
20.3459
21.619
22.78
23.8295
24.7671
25.5934
26.3097
26.9183
27.4228
27.8275
28.1376
28.3587
28.4974
28.5601
28.554
28.4859
28.363
28.1923
27.9807
27.7346
27.4605
27.1642
26.8512
26.5268
26.1955
25.8616
25.5288
25.2003
24.8791
24.5674
24.2672
23.9801
23.7073
23.4496
23.2077
22.9819
22.7721
22.5782
22.3999
22.2368
22.0882
21.9535
21.8319
21.7227
21.625
21.5379
21.4607
21.3926
21.3326
21.2802
21.2345
21.1948
21.1605
21.131
21.1057
21.0841
21.0658
21.0502
21.0369
21.0256
21.016
21.0077
21.0005
20.994
20.988
20.9824
20.9768
20.9711
20.9651
20.9586
20.9514
20.9435
20.9345
20.9244
20.9131
20.9004
20.8862
20.8704
20.8528
20.8334
20.8121
20.7887
20.7627
20.7319
20.6877
20.6029
20.419
20.1725
20.8974
4368.2
-553.175
-355.507
-113.327
-26.057
1.32456
10.6154
14.6451
17.0804
18.9728
20.6274
22.1317
23.5092
24.7649
25.8992
26.9117
27.803
28.5744
29.2287
29.7697
30.202
30.5314
30.7642
30.9072
30.9678
30.9534
30.8719
30.7308
30.5379
30.3006
30.0261
29.7213
29.3925
29.046
28.6872
28.3212
27.9527
27.5856
27.2235
26.8696
26.5264
26.196
25.8801
25.58
25.2967
25.0308
24.7825
24.552
24.339
24.1431
23.964
23.8008
23.6529
23.5194
23.3995
23.2922
23.1966
23.1119
23.0371
22.9714
22.9138
22.8636
22.8201
22.7825
22.7502
22.7225
22.6989
22.6787
22.6617
22.6472
22.6349
22.6245
22.6155
22.6077
22.6008
22.5944
22.5884
22.5826
22.5766
22.5704
22.5636
22.5562
22.5479
22.5386
22.5281
22.5164
22.5031
22.4883
22.4717
22.4534
22.4331
22.4108
22.3863
22.3596
22.3294
22.2891
22.2117
22.0205
21.6928
22.5956
4368.29
-552.921
-355.088
-112.748
-25.3229
2.20855
11.6435
15.8108
18.3767
20.3919
22.1611
23.7713
25.2457
26.589
27.8013
28.8825
29.8329
30.6542
31.3493
31.9223
32.3784
32.7237
32.965
33.1097
33.1657
33.1412
33.0445
32.8839
32.6677
32.4039
32.1003
31.7643
31.4029
31.0226
30.6294
30.2289
29.8259
29.4248
29.0296
28.6434
28.269
27.9088
27.5645
27.2377
26.9291
26.6396
26.3693
26.1184
25.8866
25.6736
25.4787
25.3012
25.1404
24.9952
24.8649
24.7482
24.6444
24.5523
24.471
24.3996
24.337
24.2826
24.2353
24.1945
24.1594
24.1293
24.1037
24.0819
24.0634
24.0478
24.0345
24.0233
24.0137
24.0054
23.998
23.9913
23.9851
23.979
23.9729
23.9665
23.9596
23.952
23.9435
23.934
23.9233
23.9113
23.8977
23.8825
23.8654
23.8465
23.8256
23.8026
23.7774
23.75
23.7198
23.6815
23.6093
23.4141
23.019
24.0717
4368.37
-552.689
-354.705
-112.217
-24.6482
3.02238
12.5911
16.8861
19.5729
21.7018
23.5768
25.2846
26.8479
28.2713
29.5548
30.698
31.7016
32.5672
33.2981
33.8987
34.3745
34.732
34.9787
35.1223
35.1714
35.1348
35.0212
34.8397
34.5991
34.308
33.9747
33.6071
33.2127
32.7986
32.3711
31.9361
31.4989
31.0642
30.636
30.218
29.8129
29.4234
29.0512
28.698
28.3647
28.052
27.7602
27.4893
27.2392
27.0093
26.7991
26.6076
26.4342
26.2776
26.1371
26.0113
25.8994
25.8001
25.7125
25.6355
25.5681
25.5094
25.4585
25.4145
25.3767
25.3444
25.3168
25.2934
25.2736
25.2568
25.2427
25.2307
25.2205
25.2117
25.204
25.1971
25.1906
25.1844
25.1782
25.1717
25.1648
25.1571
25.1486
25.1391
25.1283
25.1162
25.1025
25.087
25.0698
25.0506
25.0293
25.0059
24.9802
24.9524
24.922
24.8849
24.8167
24.6208
24.1761
25.3452
4368.44
-552.476
-354.353
-111.729
-24.0275
3.7713
13.4632
17.8757
20.6737
22.9067
24.8785
26.6752
28.3194
29.8152
31.1627
32.3614
33.4119
34.3163
35.0779
35.7014
36.1928
36.5589
36.8076
36.9474
36.9872
36.9363
36.8043
36.6005
36.3344
36.0151
35.6515
35.2519
34.8244
34.3764
33.9147
33.4455
32.9743
32.5063
32.0457
31.5962
31.161
30.7426
30.3431
29.964
29.6064
29.271
28.9581
28.6678
28.3997
28.1534
27.9282
27.7231
27.5374
27.3698
27.2192
27.0846
26.9648
26.8586
26.7648
26.6824
26.6103
26.5475
26.493
26.446
26.4056
26.371
26.3416
26.3166
26.2955
26.2776
26.2626
26.25
26.2392
26.23
26.222
26.2149
26.2083
26.202
26.1958
26.1893
26.1824
26.1749
26.1665
26.157
26.1464
26.1343
26.1206
26.1053
26.088
26.0688
26.0474
26.0239
25.9981
25.9701
25.9397
25.9036
25.8385
25.6446
25.1686
26.4199
4368.5
-552.282
-354.031
-111.282
-23.4598
4.45614
14.2605
18.7801
21.6792
24.0069
26.0662
27.9431
29.6598
31.2203
32.6245
33.8719
34.9633
35.9007
36.6878
37.3296
37.8323
38.2034
38.451
38.5841
38.6122
38.5451
38.3928
38.1654
37.8728
37.5245
37.1301
36.6982
36.2374
35.7555
35.2597
34.7564
34.2517
33.7508
33.2581
32.7777
32.3128
31.8662
31.4398
31.0354
30.6541
30.2966
29.9632
29.6539
29.3683
29.106
28.8661
28.6479
28.4501
28.2717
28.1116
27.9683
27.8409
27.7278
27.6281
27.5405
27.4638
27.397
27.3391
27.2891
27.2462
27.2095
27.1782
27.1517
27.1293
27.1105
27.0947
27.0813
27.0701
27.0605
27.0523
27.045
27.0383
27.032
27.0259
27.0195
27.0128
27.0054
26.9972
26.988
26.9776
26.9658
26.9524
26.9373
26.9203
26.9013
26.8801
26.8568
26.8312
26.8033
26.7732
26.7379
26.6758
26.4862
25.9956
27.2964
4368.56
-552.106
-353.739
-110.877
-22.9452
5.07683
14.9829
19.5992
22.5893
25.0018
27.1394
29.0877
30.8686
32.486
33.9396
35.229
36.355
37.3198
38.1272
38.7826
39.2926
39.6649
39.9082
40.0318
40.0459
39.9606
39.7866
39.5342
39.214
38.8361
38.4103
37.9459
37.4517
36.9359
36.4061
35.8692
35.3313
34.7979
34.2737
33.763
33.269
32.7946
32.342
31.9129
31.5085
31.1294
30.7759
30.4481
30.1455
29.8677
29.6136
29.3825
29.1731
28.9843
28.8147
28.6632
28.5283
28.4087
28.3032
28.2105
28.1294
28.0587
27.9975
27.9447
27.8993
27.8605
27.8275
27.7995
27.776
27.7562
27.7395
27.7256
27.7139
27.704
27.6956
27.6882
27.6815
27.6753
27.6692
27.6631
27.6566
27.6495
27.6416
27.6328
27.6228
27.6114
27.5984
27.5838
27.5672
27.5487
27.5281
27.5052
27.4801
27.4527
27.4231
27.3889
27.3296
27.1463
26.6557
27.9764
4368.62
-551.949
-353.477
-110.514
-22.4836
5.63347
15.6304
20.3329
23.4039
25.8916
28.0983
30.1092
31.9461
33.6125
35.1083
36.433
37.5875
38.574
39.3967
40.0612
40.5744
40.9443
41.1801
41.2917
41.2894
41.1841
40.9867
40.7082
40.3596
39.9513
39.4937
38.9965
38.4688
37.9193
37.3558
36.7855
36.2148
35.6495
35.0944
34.5539
34.0314
33.5299
33.0518
32.5986
32.1716
31.7714
31.3985
31.0527
30.7337
30.4407
30.173
29.9294
29.7087
29.5098
29.3312
29.1715
29.0294
28.9035
28.7924
28.6948
28.6094
28.5351
28.4707
28.4151
28.3673
28.3266
28.2919
28.2625
28.2378
28.2171
28.1997
28.1852
28.1731
28.1629
28.1543
28.1469
28.1402
28.1341
28.1283
28.1224
28.1162
28.1095
28.1021
28.0937
28.0842
28.0734
28.061
28.047
28.0312
28.0134
27.9935
27.9714
27.9471
27.9205
27.8918
27.8588
27.8025
27.6273
27.1485
28.4637
4368.66
-551.809
-353.244
-110.192
-22.0744
6.12668
16.2038
20.9821
24.124
26.6773
28.944
31.0089
32.8936
34.6015
36.1324
37.4858
38.6627
39.6655
40.4985
41.1676
41.68
42.0442
42.2695
42.3664
42.3456
42.2184
41.9963
41.6905
41.3125
40.8734
40.3836
39.8534
39.2924
38.7093
38.1124
37.5092
36.9062
36.3095
35.724
35.1544
34.6041
34.0762
33.5731
33.0965
32.6475
32.227
31.8352
31.472
31.137
30.8294
30.5484
30.2927
30.0612
29.8525
29.6651
29.4977
29.3487
29.2166
29.1002
28.9978
28.9083
28.8304
28.7629
28.7047
28.6547
28.612
28.5757
28.545
28.5192
28.4975
28.4795
28.4645
28.452
28.4416
28.4328
28.4254
28.4188
28.4129
28.4072
28.4017
28.3959
28.3897
28.3828
28.375
28.3661
28.356
28.3445
28.3313
28.3163
28.2995
28.2806
28.2595
28.2362
28.2108
28.1832
28.1517
28.0985
27.9331
27.4753
28.7636
4368.7
-551.687
-353.041
-109.91
-21.7166
6.55763
16.7045
21.5484
24.7515
27.3611
29.6788
31.7893
33.7138
35.4558
37.0149
38.3907
39.5841
40.5979
41.4364
42.1059
42.6137
42.9687
43.1808
43.2605
43.2192
43.0685
42.8202
42.4861
42.0781
41.6076
41.0854
40.5222
39.9278
39.3115
38.6816
38.0458
37.4112
36.7836
36.1685
35.5704
34.993
34.4394
33.912
33.4126
32.9424
32.5021
32.0921
31.712
31.3615
31.0399
30.746
30.4787
30.2367
30.0186
29.8228
29.6479
29.4922
29.3543
29.2326
29.1257
29.0323
28.9509
28.8804
28.8196
28.7675
28.7229
28.6851
28.6531
28.6263
28.6038
28.5851
28.5696
28.5568
28.5462
28.5373
28.5299
28.5234
28.5177
28.5124
28.5072
28.5019
28.4962
28.4899
28.4828
28.4747
28.4654
28.4547
28.4425
28.4286
28.4129
28.3952
28.3753
28.3534
28.3293
28.3032
28.2734
28.2237
28.0692
27.6395
28.8837
4368.74
-551.581
-352.866
-109.668
-21.4089
6.92811
17.1345
22.0342
25.289
27.9458
30.306
32.4539
34.4105
36.1795
37.7601
39.1521
40.3565
41.3762
42.2157
42.8814
43.381
43.7238
43.9199
43.9802
43.9165
43.7407
43.4651
43.1019
42.6632
42.1608
41.6061
41.01
40.3824
39.7331
39.0706
38.4029
37.7371
37.0795
36.4354
35.8095
35.2057
34.6271
34.0762
33.5548
33.064
32.6046
32.1769
31.7806
31.4152
31.08
30.7737
30.4953
30.2432
30.016
29.8122
29.63
29.4679
29.3244
29.1977
29.0865
28.9892
28.9046
28.8312
28.768
28.7137
28.6674
28.6281
28.5949
28.5671
28.5438
28.5245
28.5086
28.4954
28.4846
28.4757
28.4683
28.462
28.4565
28.4515
28.4468
28.442
28.4369
28.4312
28.4249
28.4177
28.4093
28.3996
28.3885
28.3758
28.3613
28.345
28.3266
28.3062
28.2838
28.2593
28.2315
28.1854
28.0429
27.6461
28.833
4368.77
-551.493
-352.719
-109.464
-21.1492
7.24044
17.4965
22.4426
25.7401
28.4354
30.8297
33.0071
34.9887
36.7777
38.3736
39.776
40.986
42.0067
42.8429
43.501
43.9892
44.3168
44.4944
44.5332
44.4453
44.2431
43.9391
43.546
43.0761
42.5417
41.9544
41.3254
40.665
39.9831
39.2886
38.5895
37.8932
37.2062
36.5338
35.881
35.2516
34.6488
34.0751
33.5323
33.0217
32.5439
32.0992
31.6872
31.3075
30.9592
30.6411
30.3519
30.0901
29.8543
29.6426
29.4536
29.2854
29.1364
29.005
28.8896
28.7887
28.7009
28.6248
28.5592
28.503
28.455
28.4143
28.3799
28.3511
28.3271
28.3072
28.2908
28.2774
28.2664
28.2575
28.2501
28.244
28.2388
28.2342
28.2299
28.2256
28.2211
28.2163
28.2107
28.2044
28.197
28.1885
28.1786
28.1672
28.1541
28.1393
28.1225
28.1038
28.0832
28.0607
28.035
27.9928
27.8628
27.5019
28.622
4368.79
-551.419
-352.597
-109.295
-20.9354
7.49738
17.7939
22.7773
26.1087
28.8343
31.2549
33.4546
35.4541
37.2567
38.8618
40.2691
41.4799
42.4971
43.3259
43.9729
44.4464
44.7562
44.913
44.9284
44.8149
44.585
44.2518
43.8281
43.3267
42.7601
42.1403
41.4786
40.7858
40.0717
39.3457
38.616
37.89
37.1742
36.4744
35.7954
35.1412
34.515
33.9193
33.356
32.8262
32.3307
31.8696
31.4426
31.0491
30.6882
30.3588
30.0593
29.7883
29.5441
29.3251
29.1294
28.9553
28.8012
28.6652
28.5458
28.4414
28.3506
28.2719
28.2041
28.146
28.0964
28.0543
28.0188
27.9891
27.9644
27.9439
27.9271
27.9135
27.9024
27.8934
27.8861
27.8802
27.8753
27.8711
27.8672
27.8635
27.8597
27.8556
27.851
27.8456
27.8393
27.8319
27.8233
27.8133
27.8017
27.7885
27.7735
27.7567
27.738
27.7176
27.6942
27.656
27.5389
27.2153
28.2624
4368.81
-551.361
-352.5
-109.16
-20.7647
7.70207
18.0302
23.0425
26.3997
29.1477
31.5873
33.8022
35.8132
37.6234
39.2321
40.6393
41.8461
42.8557
43.6734
44.306
44.7621
45.0516
45.1856
45.176
45.0354
44.7769
44.4137
43.959
43.4259
42.8271
42.1748
41.4808
40.7559
40.0104
39.2535
38.4938
37.7388
36.9953
36.2688
35.5645
34.8863
34.2375
33.6206
33.0375
32.4893
31.9768
31.4999
31.0586
30.6519
30.2791
29.9387
29.6294
29.3495
29.0974
28.8713
28.6693
28.4897
28.3305
28.1902
28.067
27.9594
27.8657
27.7845
27.7146
27.6546
27.6035
27.5601
27.5236
27.493
27.4676
27.4466
27.4294
27.4155
27.4043
27.3953
27.3881
27.3824
27.3778
27.374
27.3706
27.3675
27.3644
27.3611
27.3573
27.353
27.3478
27.3416
27.3343
27.3258
27.3158
27.3043
27.2911
27.2763
27.2597
27.2414
27.2205
27.1863
27.082
26.796
27.7666
4368.83
-551.316
-352.425
-109.057
-20.6343
7.85795
18.2095
23.2427
26.6181
29.3814
31.833
34.0568
36.0731
37.8853
39.4926
40.8949
42.0935
43.0917
43.8949
44.5102
44.9462
45.2133
45.3227
45.2866
45.118
44.83
44.4362
43.9502
43.3853
42.7544
42.07
41.3441
40.5877
39.8113
39.0244
38.2355
37.4523
36.6817
35.9295
35.2007
34.4994
33.8288
33.1916
32.5895
32.0237
31.4948
31.003
30.5478
30.1286
29.7442
29.3935
29.0748
28.7865
28.5269
28.294
28.086
27.901
27.7372
27.5928
27.466
27.3551
27.2587
27.1752
27.1032
27.0415
26.9889
26.9443
26.9068
26.8754
26.8493
26.8278
26.8103
26.7961
26.7848
26.7758
26.7688
26.7633
26.7589
26.7555
26.7527
26.7502
26.7477
26.7452
26.7424
26.739
26.735
26.73
26.7241
26.7171
