/*--------------------------------*- C++ -*----------------------------------*\
  =========                 |
  \\      /  F ield         | OpenFOAM: The Open Source CFD Toolbox
   \\    /   O peration     | Website:  https://openfoam.org
    \\  /    A nd           | Version:  10
     \\/     M anipulation  |
\*---------------------------------------------------------------------------*/
FoamFile
{
    format      ascii;
    class       volScalarField;
    location    "5";
    object      ddt0(T);
}
// * * * * * * * * * * * * * * * * * * * * * * * * * * * * * * * * * * * * * //

dimensions      [0 0 -1 1 0 0 0];

internalField   nonuniform List<scalar> 
10000
(
6311.77
3013.31
3003.14
3054.27
3068.05
3071.27
3072.14
3072.42
3072.54
3072.6
3072.64
3072.68
3072.71
3072.74
3072.77
3072.8
3072.83
3072.85
3072.87
3072.89
3072.91
3072.93
3072.94
3072.95
3072.97
3072.98
3072.98
3072.99
3073
3073
3073
3073
3073.01
3073.01
3073
3073
3073
3073
3072.99
3072.99
3072.98
3072.98
3072.97
3072.97
3072.96
3072.95
3072.95
3072.94
3072.93
3072.93
3072.92
3072.92
3072.91
3072.9
3072.9
3072.89
3072.89
3072.88
3072.88
3072.87
3072.87
3072.87
3072.86
3072.86
3072.85
3072.85
3072.85
3072.85
3072.84
3072.84
3072.84
3072.84
3072.84
3072.83
3072.83
3072.83
3072.83
3072.83
3072.83
3072.83
3072.82
3072.82
3072.82
3072.82
3072.82
3072.82
3072.82
3072.82
3072.82
3072.82
3072.82
3072.82
3072.81
3072.8
3072.75
3072.46
3070.9
3064.09
3060.01
3550.57
3490.69
-773.082
-644.68
-517.264
-483.156
-475.2
-473.128
-472.458
-472.175
-472.013
-471.891
-471.785
-471.687
-471.594
-471.507
-471.425
-471.349
-471.277
-471.212
-471.151
-471.097
-471.047
-471.003
-470.964
-470.93
-470.9
-470.875
-470.855
-470.838
-470.826
-470.817
-470.811
-470.809
-470.81
-470.813
-470.819
-470.827
-470.837
-470.849
-470.863
-470.878
-470.894
-470.91
-470.928
-470.946
-470.965
-470.984
-471.003
-471.021
-471.04
-471.059
-471.077
-471.095
-471.112
-471.129
-471.145
-471.16
-471.175
-471.189
-471.203
-471.215
-471.227
-471.239
-471.249
-471.259
-471.269
-471.277
-471.286
-471.293
-471.3
-471.307
-471.312
-471.318
-471.323
-471.328
-471.332
-471.336
-471.34
-471.343
-471.347
-471.35
-471.352
-471.355
-471.358
-471.36
-471.362
-471.365
-471.367
-471.369
-471.371
-471.373
-471.376
-471.382
-471.401
-471.487
-471.916
-474.07
-483.555
-509.477
-416.158
3458.12
-683.499
-448.933
-282.424
-237.171
-226.249
-223.338
-222.38
-221.961
-221.709
-221.513
-221.338
-221.176
-221.022
-220.877
-220.74
-220.612
-220.493
-220.384
-220.283
-220.191
-220.108
-220.034
-219.968
-219.911
-219.861
-219.82
-219.785
-219.757
-219.736
-219.721
-219.712
-219.708
-219.709
-219.714
-219.724
-219.737
-219.754
-219.773
-219.796
-219.82
-219.847
-219.875
-219.904
-219.934
-219.965
-219.996
-220.028
-220.059
-220.091
-220.121
-220.152
-220.181
-220.21
-220.238
-220.265
-220.29
-220.315
-220.339
-220.361
-220.382
-220.402
-220.421
-220.439
-220.455
-220.471
-220.485
-220.499
-220.511
-220.523
-220.534
-220.544
-220.553
-220.562
-220.569
-220.577
-220.583
-220.59
-220.595
-220.601
-220.606
-220.61
-220.615
-220.619
-220.623
-220.627
-220.63
-220.634
-220.637
-220.64
-220.644
-220.648
-220.656
-220.673
-220.73
-220.974
-222.163
-227.633
-245.448
-231.675
3496.81
-577.716
-305.967
-125.487
-75.7736
-63.4757
-60.1032
-58.9528
-58.4256
-58.0917
-57.8236
-57.5826
-57.3571
-57.1437
-56.942
-56.7521
-56.5743
-56.4088
-56.2558
-56.1154
-55.9875
-55.872
-55.7686
-55.6771
-55.597
-55.5279
-55.4694
-55.4211
-55.3824
-55.3527
-55.3317
-55.3187
-55.3132
-55.3146
-55.3223
-55.3359
-55.3547
-55.3782
-55.4059
-55.4372
-55.4716
-55.5087
-55.548
-55.589
-55.6313
-55.6746
-55.7184
-55.7625
-55.8066
-55.8503
-55.8934
-55.9357
-55.9771
-56.0173
-56.0562
-56.0938
-56.1298
-56.1644
-56.1973
-56.2286
-56.2583
-56.2863
-56.3127
-56.3375
-56.3607
-56.3825
-56.4027
-56.4216
-56.4391
-56.4554
-56.4704
-56.4843
-56.4972
-56.5091
-56.52
-56.5302
-56.5395
-56.5482
-56.5562
-56.5637
-56.5707
-56.5772
-56.5833
-56.5891
-56.5946
-56.5999
-56.605
-56.6099
-56.6147
-56.6195
-56.6245
-56.6305
-56.6397
-56.6575
-56.6976
-56.8038
-57.1921
-58.9386
-64.9682
-61.879
3507.74
-549.088
-267.049
-82.2613
-30.9566
-18.0705
-14.4524
-13.1719
-12.5545
-12.1451
-11.8082
-11.5022
-11.2148
-10.9426
-10.6852
-10.4427
-10.2155
-10.004
-9.80849
-9.62897
-9.4654
-9.31759
-9.18527
-9.06805
-8.96549
-8.87707
-8.80223
-8.74038
-8.69088
-8.65307
-8.62628
-8.6098
-8.60292
-8.60493
-8.61511
-8.63273
-8.65708
-8.68745
-8.72317
-8.76354
-8.80793
-8.8557
-8.90627
-8.95905
-9.01352
-9.06919
-9.12558
-9.18227
-9.23888
-9.29506
-9.35049
-9.40489
-9.45804
-9.5097
-9.55973
-9.60796
-9.65429
-9.69864
-9.74093
-9.78113
-9.81922
-9.85521
-9.88912
-9.92097
-9.95081
-9.97871
-10.0047
-10.0289
-10.0514
-10.0723
-10.0916
-10.1094
-10.1259
-10.1411
-10.1552
-10.1682
-10.1802
-10.1913
-10.2016
-10.2111
-10.2201
-10.2284
-10.2363
-10.2437
-10.2507
-10.2575
-10.264
-10.2702
-10.2764
-10.2825
-10.2888
-10.2961
-10.3065
-10.3251
-10.3629
-10.4368
-10.5837
-10.9874
-12.0754
-10.6224
3510.36
-542.37
-257.643
-71.5559
-19.6769
-6.52514
-2.76274
-1.38459
-0.687859
-0.207303
0.196457
0.566116
0.914303
1.24432
1.55662
1.85085
2.12651
2.38316
2.62052
2.83849
3.03712
3.21662
3.37733
3.51969
3.64422
3.75155
3.84234
3.91732
3.97725
4.02293
4.0552
4.07489
4.08289
4.08005
4.06728
4.04544
4.0154
3.97803
3.93418
3.88465
3.83025
3.77174
3.70985
3.64527
3.57864
3.51058
3.44164
3.37235
3.30318
3.23456
3.16685
3.10041
3.03552
2.97243
2.91136
2.85248
2.79592
2.7418
2.69019
2.64113
2.59465
2.55074
2.50937
2.47052
2.43411
2.40008
2.36835
2.33883
2.31141
2.28599
2.26245
2.2407
2.2206
2.20204
2.18492
2.16911
2.1545
2.14099
2.12847
2.11683
2.10598
2.09584
2.0863
2.07728
2.06872
2.06054
2.05268
2.04506
2.03762
2.03027
2.02283
2.01473
2.00438
1.98737
1.95409
1.89031
1.78899
1.67309
1.7213
2.54645
3511.08
-540.6
-255.116
-68.5966
-16.48
-3.18541
0.677361
2.13717
2.90688
3.45574
3.92457
4.3565
4.76419
5.15087
5.51687
5.86173
6.18483
6.48567
6.76391
7.01942
7.25227
7.46268
7.65103
7.81784
7.96372
8.08937
8.19557
8.28318
8.35309
8.40624
8.4436
8.46618
8.47499
8.47108
8.45547
8.4292
8.39331
8.3488
8.29668
8.2379
8.17341
8.1041
8.03083
7.95441
7.87561
7.79515
7.71368
7.63181
7.5501
7.46905
7.38911
7.31067
7.23407
7.15961
7.08754
7.01806
6.95134
6.88749
6.82661
6.76874
6.71392
6.66213
6.61335
6.56754
6.52462
6.4845
6.4471
6.4123
6.37999
6.35003
6.32231
6.29668
6.27301
6.25116
6.23101
6.2124
6.19522
6.17933
6.16461
6.15094
6.1382
6.12629
6.11509
6.10452
6.09449
6.08491
6.07569
6.06678
6.05809
6.04956
6.04104
6.03226
6.02228
6.00832
5.98338
5.93452
5.85085
5.76194
5.87566
6.41338
3511.33
-540.012
-254.265
-67.5634
-15.32
-1.92851
2.01582
3.54927
4.38812
5.00298
5.53514
6.02781
6.49359
6.93557
7.35396
7.74816
8.11748
8.46133
8.77934
9.07135
9.33742
9.57781
9.79295
9.9834
10.1499
10.2931
10.4141
10.5138
10.5932
10.6533
10.6953
10.7204
10.7297
10.7244
10.7057
10.6747
10.6328
10.581
10.5204
10.4523
10.3776
10.2974
10.2127
10.1244
10.0334
9.94057
9.84657
9.75214
9.65792
9.56448
9.47234
9.38194
9.29369
9.20791
9.1249
9.04488
8.96805
8.89453
8.82444
8.75783
8.69472
8.63512
8.57899
8.52627
8.47688
8.43073
8.38771
8.34768
8.31052
8.27608
8.2442
8.21474
8.18754
8.16245
8.1393
8.11794
8.09822
8.07999
8.06311
8.04744
8.03285
8.01921
8.0064
7.99432
7.98286
7.97191
7.9614
7.95123
7.94134
7.93164
7.92204
7.91241
7.90233
7.89042
7.87246
7.83829
7.77147
7.67142
7.67878
8.16411
3511.43
-539.753
-253.878
-67.0703
-14.7376
-1.26707
2.75033
4.353
5.25824
5.93704
6.53075
7.08251
7.60478
8.10051
8.56979
9.0119
9.42606
9.81161
10.1681
10.4954
10.7936
11.063
11.3039
11.5171
11.7033
11.8634
11.9985
12.1095
12.1977
12.2643
12.3105
12.3377
12.347
12.34
12.3178
12.282
12.2338
12.1744
12.1053
12.0277
11.9427
11.8516
11.7554
11.6552
11.552
11.4467
11.3402
11.2332
11.1265
11.0207
10.9164
10.8141
10.7143
10.6173
10.5234
10.4329
10.346
10.2629
10.1837
10.1084
10.0371
9.9697
9.90627
9.84671
9.79092
9.7388
9.69021
9.64501
9.60305
9.56417
9.5282
9.49495
9.46427
9.43597
9.40986
9.38579
9.36358
9.34305
9.32406
9.30643
9.29004
9.27472
9.26035
9.2468
9.23395
9.22169
9.20993
9.19856
9.18751
9.17668
9.16602
9.15542
9.14473
9.1334
9.11924
9.09503
9.04201
8.93141
8.83508
9.39827
3511.49
-539.597
-253.634
-66.7452
-14.337
-0.794983
3.291
4.9599
5.92919
6.6699
7.32327
7.93229
8.50929
9.05708
9.57559
10.064
10.5215
10.9473
11.3409
11.7022
12.0313
12.3284
12.5941
12.829
13.034
13.2101
13.3585
13.4802
13.5766
13.649
13.6988
13.7275
13.7365
13.7274
13.7015
13.6604
13.6057
13.5386
13.4608
13.3735
13.2781
13.1759
13.0682
12.956
12.8406
12.7229
12.6039
12.4844
12.3653
12.2472
12.1308
12.0167
11.9053
11.7971
11.6924
11.5915
11.4946
11.402
11.3137
11.2298
11.1504
11.0753
11.0047
10.9384
10.8762
10.8182
10.7641
10.7138
10.6671
10.6238
10.5838
10.5468
10.5127
10.4813
10.4523
10.4255
10.4009
10.3781
10.357
10.3375
10.3193
10.3024
10.2865
10.2715
10.2574
10.2438
10.2309
10.2184
10.2062
10.1943
10.1826
10.1711
10.1595
10.1479
10.1352
10.1164
10.073
9.95565
9.77241
10.4649
3511.53
-539.476
-253.438
-66.4777
-14.0001
-0.390723
3.76079
5.4934
6.52452
7.32502
8.03602
8.70035
9.33016
9.92813
10.4941
11.0271
11.5262
11.9907
12.4199
12.8138
13.1724
13.496
13.7852
14.0408
14.2636
14.4548
14.6155
14.7471
14.851
14.9286
14.9815
15.0112
15.0194
15.0077
14.9777
14.9311
14.8695
14.7945
14.7077
14.6106
14.5047
14.3914
14.2721
14.148
14.0203
13.8902
13.7587
13.6267
13.4952
13.3648
13.2364
13.1105
12.9877
12.8684
12.753
12.6418
12.535
12.433
12.3357
12.2433
12.1558
12.0732
11.9954
11.9223
11.854
11.7901
11.7306
11.6752
11.6238
11.5763
11.5322
11.4916
11.4541
11.4195
11.3877
11.3584
11.3313
11.3063
11.2832
11.2619
11.242
11.2235
11.2061
11.1898
11.1744
11.1596
11.1455
11.132
11.1188
11.1059
11.0932
11.0807
11.0683
11.056
11.0434
11.0273
10.9902
10.8693
10.6136
11.4419
3511.57
-539.369
-253.262
-66.2343
-13.6909
-0.0171245
4.19729
5.9912
7.08183
7.9399
8.70635
9.42385
10.1044
10.7506
11.362
11.9378
12.4767
12.9781
13.4414
13.8663
14.253
14.6018
14.9133
15.1883
15.4278
15.633
15.8053
15.9459
16.0565
16.1386
16.1939
16.2241
16.231
16.2163
16.1818
16.1293
16.0606
15.9775
15.8815
15.7745
15.6579
15.5334
15.4024
15.2662
15.1263
14.9838
14.8398
14.6954
14.5515
14.409
14.2686
14.131
13.9968
13.8665
13.7405
13.619
13.5025
13.3911
13.285
13.1841
13.0887
12.9985
12.9137
12.8341
12.7595
12.6899
12.625
12.5646
12.5087
12.4568
12.4089
12.3647
12.3239
12.2863
12.2516
12.2197
12.1903
12.1632
12.1382
12.115
12.0935
12.0734
12.0547
12.0371
12.0204
12.0045
11.9894
11.9748
11.9606
11.9468
11.9332
11.9198
11.9066
11.8935
11.8806
11.8657
11.8328
11.7105
11.397
12.346
3511.6
-539.269
-253.097
-66.005
-13.3987
0.336747
4.61149
6.4642
7.61192
8.52519
9.34478
10.1132
10.8423
11.5345
12.1894
12.8059
13.3828
13.9194
14.4149
14.8693
15.2825
15.655
15.9875
16.2807
16.5358
16.754
16.9367
17.0855
17.202
17.2878
17.3449
17.375
17.38
17.3618
17.3225
17.2638
17.1877
17.0961
16.9908
16.8736
16.7463
16.6104
16.4677
16.3195
16.1672
16.0123
15.8559
15.6991
15.5429
15.3883
15.236
15.0869
14.9414
14.8001
14.6636
14.5321
14.4059
14.2852
14.1703
14.0611
13.9578
13.8603
13.7685
13.6823
13.6017
13.5263
13.4562
13.391
13.3305
13.2744
13.2227
13.1749
13.1308
13.0902
13.0529
13.0185
12.9868
12.9576
12.9307
12.9057
12.8826
12.8611
12.8411
12.8222
12.8044
12.7875
12.7713
12.7558
12.7407
12.726
12.7116
12.6975
12.6834
12.6696
12.6562
12.6417
12.6115
12.4897
12.1336
13.1793
3511.64
-539.174
-252.94
-65.787
-13.1207
0.673692
5.00611
6.91501
8.11727
9.08324
9.95352
10.7705
11.5458
12.2818
12.978
13.6331
14.246
14.8158
15.3419
15.824
16.2622
16.6569
17.0089
17.319
17.5885
17.8185
18.0107
18.1667
18.2882
18.377
18.4352
18.4645
18.4671
18.4451
18.4004
18.3351
18.2513
18.151
18.0362
17.9087
17.7704
17.6232
17.4686
17.3083
17.1438
16.9765
16.8076
16.6385
16.4701
16.3035
16.1394
15.9787
15.8221
15.67
15.523
15.3815
15.2458
15.116
14.9924
14.875
14.7639
14.6591
14.5604
14.4679
14.3812
14.3003
14.225
14.1549
14.09
14.0299
13.9743
13.9231
13.8758
13.8323
13.7923
13.7555
13.7216
13.6904
13.6616
13.635
13.6103
13.5874
13.5661
13.5461
13.5272
13.5093
13.4922
13.4758
13.4599
13.4445
13.4293
13.4144
13.3997
13.3852
13.3712
13.3567
13.3285
13.2083
12.8246
13.9407
3511.67
-539.085
-252.791
-65.5799
-12.8565
0.994043
5.38136
7.34373
8.59785
9.61389
10.5323
11.3953
12.2144
12.9919
13.7271
14.4187
15.0655
15.6666
16.2213
16.7293
17.1908
17.6062
17.9763
18.302
18.5845
18.8253
19.0259
19.1881
19.3138
19.4048
19.4632
19.4912
19.4909
19.4644
19.4139
19.3417
19.2499
19.1406
19.016
18.878
18.7287
18.57
18.4035
18.2311
18.0543
17.8747
17.6935
17.512
17.3315
17.1529
16.9772
16.8051
16.6374
16.4746
16.3173
16.166
16.0208
15.882
15.7498
15.6244
15.5056
15.3936
15.2882
15.1893
15.0967
15.0103
14.9299
14.8552
14.7859
14.7217
14.6625
14.6078
14.5575
14.5111
14.4685
14.4293
14.3933
14.3601
14.3295
14.3013
14.2752
14.251
14.2284
14.2073
14.1874
14.1686
14.1506
14.1334
14.1168
14.1007
14.0849
14.0694
14.054
14.039
14.0244
14.0098
13.9828
13.8653
13.4677
14.6286
3511.69
-539
-252.65
-65.384
-12.6063
1.29743
5.73676
7.74976
9.05295
10.1163
11.0802
11.9866
12.847
13.6635
14.4354
15.1613
15.8399
16.4702
17.0516
17.5838
18.0669
18.5013
18.888
19.2278
19.5222
19.7725
19.9804
20.1479
20.2767
20.3691
20.4272
20.4531
20.4492
20.4178
20.3611
20.2816
20.1814
20.0629
19.9283
19.7798
19.6193
19.4489
19.2706
19.086
18.897
18.7049
18.5115
18.3178
18.1252
17.9347
17.7474
17.5641
17.3854
17.2121
17.0446
16.8835
16.729
16.5813
16.4408
16.3073
16.1811
16.062
15.9499
15.8448
15.7465
15.6547
15.5692
15.4899
15.4163
15.3482
15.2853
15.2274
15.174
15.1249
15.0797
15.0382
15.0001
14.9651
14.9328
14.903
14.8755
14.85
14.8263
14.8041
14.7833
14.7636
14.7449
14.727
14.7098
14.693
14.6767
14.6606
14.6448
14.6292
14.6142
14.5993
14.5733
14.4593
14.0595
15.2422
3511.72
-538.92
-252.517
-65.1993
-12.3706
1.58335
6.07172
8.13242
9.4818
10.5897
11.5963
12.5435
13.4426
14.2957
15.1018
15.8597
16.5679
17.2254
17.8314
18.3859
18.8888
19.3407
19.7424
20.095
20.3998
20.6585
20.8726
21.0443
21.1755
21.2684
21.3253
21.3485
21.3405
21.3036
21.2403
21.1531
21.0443
20.9163
20.7715
20.6121
20.4404
20.2583
20.068
19.8713
19.67
19.4657
19.2599
19.0541
18.8495
18.6473
18.4485
18.254
18.0646
17.8808
17.7033
17.5326
17.3689
17.2125
17.0636
16.9223
16.7887
16.6626
16.5441
16.4329
16.3289
16.2318
16.1415
16.0575
15.9798
15.9079
15.8415
15.7803
15.7239
15.6721
15.6245
15.5808
15.5407
15.5038
15.4698
15.4386
15.4098
15.3831
15.3583
15.3351
15.3134
15.293
15.2736
15.255
15.2372
15.22
15.2031
15.1866
15.1704
15.1544
15.139
15.124
15.0987
14.989
14.5967
15.781
3511.75
-538.846
-252.393
-65.0263
-12.1496
1.85138
6.38572
8.49112
9.88375
11.0333
12.0798
13.0651
14.0003
14.8874
15.7254
16.5129
17.2484
17.931
18.5598
19.1346
19.6556
20.1233
20.5385
20.9023
21.2163
21.482
21.7013
21.8761
22.0087
22.1013
22.1563
22.1762
22.1634
22.1206
22.0502
21.9548
21.8371
21.6994
21.5441
21.3738
21.1907
20.9969
20.7946
20.5857
20.3721
20.1556
19.9377
19.7198
19.5034
19.2895
19.0794
18.8738
18.6737
18.4797
18.2923
18.1121
17.9393
17.7744
17.6173
17.4684
17.3275
17.1946
17.0696
16.9524
16.8429
16.7406
16.6455
16.5572
16.4753
16.3996
16.3298
16.2654
16.2062
16.1518
16.1018
16.056
16.0139
15.9752
15.9397
15.9071
15.8769
15.8491
15.8233
15.7993
15.7768
15.7556
15.7356
15.7165
15.6982
15.6805
15.6633
15.6464
15.6299
15.6136
15.598
15.5827
15.558
15.4534
15.0763
16.2451
3511.77
-538.776
-252.277
-64.8651
-11.9437
2.10123
6.67844
8.82548
10.2584
11.4467
12.5303
13.5509
14.5195
15.438
16.3055
17.1202
17.8809
18.5863
19.2358
19.8291
20.3664
20.8482
21.2753
21.649
21.9708
22.2423
22.4655
22.6425
22.7756
22.867
22.9194
22.9352
22.9172
22.8678
22.79
22.6862
22.5591
22.4114
22.2456
22.0642
21.8695
21.664
21.4496
21.2286
21.0028
20.7741
20.544
20.3142
20.086
19.8607
19.6393
19.4229
19.2122
19.008
18.8109
18.6214
18.4398
18.2664
18.1013
17.9448
17.7968
17.6572
17.526
17.403
17.288
17.1807
17.0809
16.9882
16.9024
16.823
16.7498
16.6824
16.6204
16.5634
16.5112
16.4632
16.4192
16.3789
16.3419
16.3079
16.2766
16.2477
16.2209
16.196
16.1728
16.151
16.1304
16.1108
16.0921
16.0741
16.0566
16.0395
16.0227
16.0063
15.9904
15.975
15.951
15.8521
15.4959
16.6354
3511.79
-538.712
-252.17
-64.7158
-11.7529
2.33277
6.94971
9.13532
10.6055
11.8296
12.9475
14.0006
15
15.9474
16.8417
17.6814
18.4649
19.1911
19.8593
20.4692
21.0209
21.5151
21.9526
22.3347
22.663
22.9391
23.1651
23.3433
23.4758
23.5653
23.6143
23.6254
23.6015
23.5452
23.4594
23.3468
23.2101
23.0522
22.8756
22.683
22.4767
22.2593
22.0329
21.7998
21.5618
21.321
21.0789
20.8372
20.5974
20.3607
20.1283
19.9011
19.6801
19.4659
19.2592
19.0605
18.8702
18.6885
18.5156
18.3517
18.1967
18.0506
17.9132
17.7845
17.6642
17.5519
17.4475
17.3507
17.261
17.1781
17.1016
17.0312
16.9665
16.907
16.8525
16.8026
16.7568
16.7148
16.6764
16.6411
16.6086
16.5787
16.5511
16.5255
16.5016
16.4792
16.4581
16.4381
16.4191
16.4008
16.383
16.3658
16.3489
16.3324
16.3164
16.3009
16.2776
16.1849
15.8536
16.953
3511.81
-538.653
-252.071
-64.5784
-11.5772
2.54602
7.19955
9.42065
10.9251
12.1821
13.3313
14.4142
15.4417
16.4154
17.3342
18.1965
19.0006
19.7455
20.4303
21.0548
21.6193
22.1242
22.5705
22.9596
23.2929
23.5725
23.8002
23.9785
24.1097
24.1963
24.2412
24.247
24.2166
24.1529
24.0587
23.9369
23.7905
23.6221
23.4346
23.2305
23.0126
22.7833
22.5449
22.2996
22.0496
21.7967
21.5427
21.2893
21.038
20.7901
20.5467
20.309
20.0777
19.8537
19.6377
19.43
19.2311
19.0413
18.8607
18.6895
18.5277
18.3752
18.2319
18.0975
17.972
17.855
17.7461
17.6451
17.5517
17.4653
17.3857
17.3124
17.245
17.1832
17.1266
17.0747
17.0271
16.9836
16.9438
16.9073
16.8737
16.8429
16.8144
16.7881
16.7636
16.7407
16.7192
16.6989
16.6796
16.6611
16.6432
16.6259
16.6089
16.5924
16.5764
16.5609
16.5384
16.4522
16.1485
17.1995
3511.83
-538.599
-251.981
-64.4527
-11.4164
2.74114
7.42814
9.68167
11.2173
12.5043
13.6821
14.792
15.845
16.8425
17.7833
18.6658
19.4883
20.2497
20.9492
21.5865
22.1619
22.6759
23.1295
23.5241
23.8613
24.143
24.3714
24.5487
24.6776
24.7607
24.8008
24.8006
24.7633
24.6916
24.5887
24.4574
24.3008
24.1218
23.9231
23.7077
23.478
23.2368
22.9864
22.729
22.4669
22.2021
21.9363
21.6713
21.4087
21.1497
20.8955
20.6474
20.4061
20.1725
19.9472
19.7307
19.5234
19.3257
19.1376
18.9593
18.7908
18.6321
18.4829
18.3431
18.2125
18.0908
17.9776
17.8726
17.7755
17.6858
17.6031
17.527
17.4571
17.393
17.3342
17.2805
17.2313
17.1863
17.1452
17.1075
17.0729
17.0412
17.012
16.985
16.96
16.9366
16.9148
16.8942
16.8747
16.856
16.8381
16.8207
16.8038
16.7874
16.7715
16.7561
16.7342
16.6548
16.3799
17.3771
3511.85
-538.55
-251.899
-64.3385
-11.2703
2.91841
7.63579
9.91872
11.4827
12.7968
14.0003
15.1346
16.2104
17.2291
18.1895
19.0899
19.9287
20.7045
21.4167
22.065
22.6496
23.171
23.6304
24.0292
24.3689
24.6516
24.8795
25.0551
25.1808
25.2595
25.2941
25.2874
25.2425
25.1625
25.0504
24.9094
24.7424
24.5525
24.3426
24.1156
23.8742
23.6211
23.3586
23.0893
22.8152
22.5385
22.2611
21.9847
21.7108
21.4409
21.1762
20.9178
20.6667
20.4236
20.1893
19.9642
19.7487
19.5431
19.3477
19.1625
18.9875
18.8227
18.6678
18.5227
18.3872
18.2609
18.1435
18.0347
17.9339
17.8409
17.7553
17.6765
17.6041
17.5378
17.4771
17.4215
17.3707
17.3243
17.2819
17.2431
17.2077
17.1751
17.1452
17.1176
17.0921
17.0684
17.0463
17.0254
17.0058
16.9871
16.9691
16.9518
16.935
16.9187
16.903
16.8877
16.8667
16.7939
16.5481
17.4881
3511.86
-538.506
-251.825
-64.2356
-11.1387
3.0782
7.82293
10.1323
11.7217
13.06
14.2865
15.4425
16.5386
17.5761
18.5538
19.4699
20.3227
21.111
21.8339
22.4913
23.0834
23.6108
24.0745
24.476
24.817
25.0996
25.326
25.4988
25.6206
25.6941
25.7225
25.7087
25.6558
25.567
25.4455
25.2943
25.1168
24.9159
24.6947
24.456
24.2028
23.9378
23.6634
23.3821
23.0962
22.8078
22.5188
22.2311
21.9462
21.6655
21.3904
21.122
20.8613
20.6089
20.3657
20.1322
19.9087
19.6955
19.4929
19.301
19.1196
18.9489
18.7885
18.6382
18.4979
18.3672
18.2457
18.1331
18.0289
17.9327
17.8442
17.7627
17.688
17.6196
17.5569
17.4996
17.4473
17.3996
17.356
17.3162
17.2798
17.2465
17.2159
17.1878
17.1619
17.1378
17.1155
17.0945
17.0747
17.056
17.0381
17.0209
