/*--------------------------------*- C++ -*----------------------------------*\
  =========                 |
  \\      /  F ield         | OpenFOAM: The Open Source CFD Toolbox
   \\    /   O peration     | Website:  https://openfoam.org
    \\  /    A nd           | Version:  10
     \\/     M anipulation  |
\*---------------------------------------------------------------------------*/
FoamFile
{
    format      ascii;
    class       volScalarField;
    location    "1";
    object      ddt0(T);
}
// * * * * * * * * * * * * * * * * * * * * * * * * * * * * * * * * * * * * * //

dimensions      [0 0 -1 1 0 0 0];

internalField   nonuniform List<scalar> 
10000
(
8796.2
4813.16
4655.45
4717.21
4746.5
4756.44
4759.86
4761.28
4762.06
4762.58
4762.96
4763.24
4763.42
4763.52
4763.56
4763.53
4763.46
4763.36
4763.23
4763.08
4762.92
4762.75
4762.6
4762.44
4762.3
4762.17
4762.06
4761.95
4761.86
4761.79
4761.72
4761.67
4761.62
4761.58
4761.55
4761.53
4761.51
4761.5
4761.48
4761.47
4761.47
4761.46
4761.46
4761.46
4761.45
4761.45
4761.45
4761.45
4761.45
4761.45
4761.45
4761.45
4761.45
4761.45
4761.45
4761.45
4761.45
4761.45
4761.45
4761.45
4761.45
4761.45
4761.45
4761.45
4761.45
4761.45
4761.45
4761.45
4761.45
4761.45
4761.45
4761.45
4761.45
4761.45
4761.45
4761.45
4761.46
4761.46
4761.46
4761.46
4761.46
4761.46
4761.46
4761.46
4761.46
4761.46
4761.46
4761.45
4761.45
4761.44
4761.44
4761.42
4761.4
4761.35
4761.18
4760.58
4758.58
4756.05
4811.59
5765.29
5516.04
-547.133
-741.53
-572.867
-492.594
-464.186
-454.125
-449.885
-447.557
-445.994
-444.859
-444.045
-443.503
-443.199
-443.1
-443.173
-443.385
-443.705
-444.103
-444.552
-445.029
-445.513
-445.988
-446.443
-446.867
-447.256
-447.605
-447.914
-448.183
-448.415
-448.611
-448.775
-448.91
-449.021
-449.111
-449.183
-449.24
-449.284
-449.319
-449.345
-449.366
-449.381
-449.393
-449.401
-449.407
-449.412
-449.415
-449.418
-449.419
-449.421
-449.421
-449.422
-449.422
-449.423
-449.423
-449.423
-449.423
-449.423
-449.423
-449.423
-449.423
-449.423
-449.422
-449.422
-449.422
-449.422
-449.421
-449.42
-449.419
-449.418
-449.417
-449.416
-449.414
-449.412
-449.409
-449.407
-449.404
-449.401
-449.397
-449.394
-449.391
-449.388
-449.386
-449.386
-449.386
-449.389
-449.395
-449.404
-449.417
-449.436
-449.462
-449.498
-449.559
-449.692
-450.082
-451.389
-455.686
-467.043
-473.146
-258.576
5359.69
-755.036
-827.412
-581.626
-468.6
-427.782
-412.817
-406.253
-402.533
-399.996
-398.146
-396.818
-395.937
-395.447
-395.295
-395.426
-395.787
-396.325
-396.991
-397.74
-398.534
-399.339
-400.13
-400.885
-401.591
-402.236
-402.816
-403.329
-403.775
-404.159
-404.484
-404.756
-404.981
-405.165
-405.314
-405.433
-405.528
-405.601
-405.659
-405.703
-405.737
-405.762
-405.781
-405.795
-405.806
-405.813
-405.819
-405.823
-405.826
-405.828
-405.829
-405.83
-405.831
-405.831
-405.831
-405.832
-405.832
-405.832
-405.832
-405.832
-405.832
-405.831
-405.831
-405.831
-405.83
-405.829
-405.829
-405.827
-405.826
-405.824
-405.822
-405.82
-405.817
-405.813
-405.81
-405.805
-405.8
-405.795
-405.789
-405.784
-405.779
-405.774
-405.771
-405.769
-405.77
-405.774
-405.783
-405.797
-405.819
-405.848
-405.889
-405.945
-406.031
-406.195
-406.608
-407.842
-411.642
-422.246
-443.766
-443.087
5404.7
-620.431
-620.276
-336.045
-206.091
-158.138
-139.89
-131.506
-126.575
-123.149
-120.637
-118.836
-117.649
-117.001
-116.817
-117.023
-117.544
-118.308
-119.246
-120.299
-121.411
-122.537
-123.642
-124.696
-125.679
-126.578
-127.386
-128.099
-128.721
-129.255
-129.707
-130.085
-130.398
-130.654
-130.861
-131.026
-131.157
-131.26
-131.34
-131.401
-131.448
-131.483
-131.51
-131.529
-131.544
-131.554
-131.562
-131.567
-131.571
-131.574
-131.576
-131.577
-131.578
-131.579
-131.579
-131.58
-131.58
-131.58
-131.58
-131.58
-131.579
-131.579
-131.579
-131.578
-131.577
-131.577
-131.575
-131.574
-131.572
-131.57
-131.567
-131.563
-131.559
-131.555
-131.549
-131.543
-131.536
-131.529
-131.521
-131.513
-131.506
-131.499
-131.494
-131.491
-131.492
-131.497
-131.508
-131.527
-131.554
-131.593
-131.646
-131.717
-131.818
-131.983
-132.323
-133.184
-135.571
-141.935
-156.066
-175.058
5428.08
-553.643
-523.492
-222.914
-84.9674
-33.0608
-12.6134
-2.79475
3.18262
7.4041
10.5128
12.735
14.187
14.962
15.1525
14.8528
14.1576
13.1586
11.9416
10.5841
9.15413
7.70869
6.29395
4.94536
3.68847
2.53996
1.50888
0.598058
-0.194633
-0.874975
-1.45128
-1.93343
-2.33205
-2.65788
-2.92131
-3.13206
-3.29895
-3.42979
-3.53139
-3.60955
-3.66913
-3.71413
-3.74783
-3.77285
-3.79127
-3.80472
-3.81447
-3.82147
-3.82645
-3.82998
-3.83245
-3.83417
-3.83534
-3.83613
-3.83665
-3.83697
-3.83713
-3.83718
-3.83713
-3.83698
-3.83672
-3.83635
-3.83583
-3.83514
-3.83422
-3.83304
-3.83154
-3.82964
-3.82726
-3.82433
-3.82076
-3.81646
-3.81135
-3.80536
-3.79847
-3.79066
-3.782
-3.77261
-3.7627
-3.75262
-3.74284
-3.73399
-3.72689
-3.72254
-3.72219
-3.72726
-3.73943
-3.76057
-3.79276
-3.83836
-3.90022
-3.98262
-4.09409
-4.25611
-4.52821
-5.07847
-6.36323
-9.47021
-16.2186
-26.9679
5436.35
-529.434
-487.991
-180.615
-38.7767
15.4748
37.4961
48.4786
55.3583
60.2793
63.9106
66.4949
68.1635
69.0262
69.1931
68.7773
67.8923
66.648
65.1469
63.4822
61.7348
59.9731
58.2519
56.6134
55.0881
53.6955
52.4462
51.3432
50.3837
49.5606
48.8635
48.2805
47.7987
47.4049
47.0866
46.8319
46.6303
46.4723
46.3496
46.2552
46.1832
46.1289
46.0882
46.058
46.0357
46.0195
46.0077
45.9993
45.9932
45.989
45.986
45.9839
45.9825
45.9816
45.9809
45.9805
45.9803
45.9803
45.9803
45.9805
45.9808
45.9813
45.9819
45.9827
45.9838
45.9852
45.9869
45.9892
45.992
45.9955
45.9998
46.0049
46.011
46.0181
46.0264
46.0358
46.0462
46.0576
46.0697
46.0821
46.0943
46.1056
46.115
46.1214
46.1235
46.1195
46.1075
46.0855
46.0511
46.0016
45.9341
45.8446
45.7265
45.5658
45.3299
44.9418
44.2217
42.7702
39.8817
35.1095
5439.33
-520.545
-474.563
-164.029
-20.0154
35.812
59.0455
70.9938
78.645
84.166
88.2391
91.1189
92.9499
93.8571
93.967
93.4105
92.3184
90.8176
89.0267
87.0528
84.9892
82.9145
80.8917
78.9693
77.1818
75.5514
74.0899
72.8005
71.6795
70.7181
69.9044
69.2241
68.6619
68.2026
67.8314
67.5345
67.2995
67.1152
66.9722
66.8622
66.7783
66.715
66.6676
66.6324
66.6065
66.5876
66.5738
66.564
66.557
66.552
66.5485
66.5461
66.5445
66.5434
66.5426
66.5422
66.5419
66.5419
66.5419
66.5421
66.5425
66.543
66.5437
66.5446
66.5458
66.5474
66.5494
66.552
66.5552
66.5592
66.564
66.5699
66.5769
66.5851
66.5947
66.6055
66.6177
66.631
66.6452
66.6599
66.6746
66.6885
66.7005
66.7096
66.7141
66.7122
66.7019
66.6809
66.6466
66.5963
66.5268
66.4347
66.3146
66.157
65.9421
65.6295
65.144
64.3542
63.0519
60.9374
5440.65
-516.577
-468.353
-156.016
-10.5574
46.4501
70.6597
83.4119
91.7095
97.7282
102.158
105.262
107.198
108.103
108.121
107.398
106.081
104.313
102.227
99.9422
97.5646
95.1814
92.8632
90.6637
88.6213
86.7605
85.094
83.6247
82.3481
81.2539
80.3282
79.5544
78.9153
78.3932
77.9713
77.634
77.3671
77.1578
76.9954
76.8705
76.7753
76.7034
76.6495
76.6096
76.5802
76.5587
76.5431
76.5319
76.524
76.5183
76.5144
76.5116
76.5098
76.5085
76.5077
76.5072
76.5069
76.5068
76.5068
76.5071
76.5074
76.508
76.5087
76.5098
76.5111
76.5129
76.5151
76.518
76.5215
76.5259
76.5313
76.5378
76.5456
76.5548
76.5655
76.5777
76.5914
76.6065
76.6227
76.6398
76.657
76.6736
76.6887
76.7008
76.7084
76.7097
76.7025
76.6844
76.6526
76.6043
76.5366
76.446
76.3282
76.1766
75.9779
75.7055
75.313
74.7415
73.9741
72.9546
5441.43
-514.255
-464.622
-151.042
-4.50178
53.4389
78.442
91.8521
100.674
107.087
111.785
115.042
117.023
117.88
117.77
116.855
115.296
113.25
110.864
108.269
105.581
102.895
100.288
97.8201
95.5313
93.4485
91.5849
89.9431
88.5176
87.2965
86.2638
85.401
84.6885
84.1068
83.6368
83.2611
82.9638
82.7308
82.55
82.411
82.305
82.225
82.1651
82.1206
82.0879
82.064
82.0467
82.0342
82.0254
82.0191
82.0147
82.0116
82.0096
82.0081
82.0072
82.0066
82.0063
82.0062
82.0063
82.0065
82.0069
82.0075
82.0083
82.0094
82.0108
82.0127
82.0151
82.0182
82.022
82.0268
82.0326
82.0397
82.0482
82.0582
82.0699
82.0833
82.0984
82.1152
82.1334
82.1526
82.1724
82.1919
82.2101
82.2257
82.2371
82.2425
82.2396
82.226
82.199
82.1557
82.093
82.0079
81.8966
81.7542
81.5712
81.3269
80.9793
80.4683
79.8205
79.3163
5441.98
-512.611
-461.95
-147.426
-0.0381037
58.6456
84.2824
98.2128
107.44
114.145
119.025
122.361
124.33
125.093
124.822
123.689
121.873
119.54
116.851
113.948
110.954
107.972
105.086
102.358
99.8327
97.5371
95.4853
93.6792
92.112
90.7704
89.6363
88.6893
87.9075
87.2694
86.754
86.3421
86.0162
85.7609
85.5627
85.4104
85.2943
85.2066
85.141
85.0923
85.0564
85.0303
85.0113
84.9977
84.988
84.9811
84.9763
84.9729
84.9707
84.9691
84.9681
84.9674
84.9671
84.967
84.967
84.9672
84.9677
84.9683
84.9691
84.9703
84.9718
84.9738
84.9764
84.9796
84.9836
84.9887
84.9949
85.0024
85.0115
85.0222
85.0347
85.0491
85.0655
85.0838
85.1038
85.1251
85.1473
85.1697
85.1912
85.2105
85.2263
85.2365
85.239
85.2315
85.2112
85.1752
85.1208
85.0447
84.9439
84.8143
84.6486
84.4298
84.1149
83.6228
82.9539
82.7648
5442.4
-511.363
-459.912
-144.656
3.39092
62.6516
88.7745
103.095
112.613
119.51
124.49
127.837
129.737
130.364
129.899
128.528
126.44
123.815
120.823
117.614
114.32
111.052
107.896
104.919
102.167
99.6689
97.4383
95.4766
93.7757
92.3204
91.0909
90.0646
89.2177
88.5266
87.9687
87.5229
87.1703
86.894
86.6797
86.5149
86.3894
86.2946
86.2236
86.171
86.1322
86.1039
86.0834
86.0687
86.0582
86.0507
86.0455
86.0419
86.0394
86.0378
86.0367
86.036
86.0356
86.0354
86.0355
86.0357
86.0361
86.0368
86.0376
86.0388
86.0404
86.0425
86.0451
86.0485
86.0527
86.0579
86.0644
86.0723
86.0817
86.093
86.1062
86.1215
86.1389
86.1585
86.1801
86.2033
86.2279
86.253
86.2778
86.3011
86.3214
86.337
86.3458
86.3454
86.3333
86.3069
86.2632
86.1994
86.1125
85.9993
85.8539
85.6616
85.3789
84.9034
84.1825
84.2311
5442.72
-510.416
-458.367
-142.56
5.98162
65.668
92.1401
106.728
116.43
123.427
128.427
131.722
133.503
133.955
133.269
131.642
129.272
126.351
123.056
119.547
115.963
112.417
109.003
105.788
102.821
100.132
97.7325
95.6244
93.7979
92.2361
90.9174
89.8171
88.9095
88.1692
87.5716
87.0943
86.7168
86.4211
86.1917
86.0154
85.8811
85.7797
85.7038
85.6475
85.6061
85.5758
85.5539
85.5381
85.5269
85.519
85.5134
85.5095
85.5069
85.5051
85.5039
85.5031
85.5027
85.5025
85.5026
85.5028
85.5032
85.5039
85.5048
85.506
85.5076
85.5097
85.5124
85.5158
85.5201
85.5255
85.5321
85.5402
85.55
85.5616
85.5754
85.5913
85.6096
85.6302
85.6531
85.6781
85.7047
85.7324
85.7604
85.7876
85.8126
85.8339
85.8494
85.857
85.8543
85.8388
85.8078
85.7586
85.6886
85.5949
85.4727
85.3092
85.0613
84.6104
83.8473
84.0907
5442.95
-509.731
-457.251
-141.05
7.83583
67.81
94.5061
109.249
119.037
126.051
131.002
134.186
135.805
136.049
135.119
133.221
130.563
127.345
123.752
119.95
116.084
112.274
108.613
105.173
102.004
99.1341
96.577
94.3321
92.3885
90.7276
89.326
88.1571
87.1933
86.4074
85.7732
85.2668
84.8663
84.5528
84.3096
84.1226
83.9803
83.8728
83.7923
83.7327
83.6887
83.6566
83.6334
83.6167
83.6048
83.5964
83.5905
83.5864
83.5836
83.5817
83.5804
83.5796
83.5792
83.579
83.579
83.5792
83.5796
83.5803
83.5812
83.5824
83.584
83.5861
83.5888
83.5922
83.5966
83.602
83.6088
83.617
83.6269
83.6388
83.6528
83.6692
83.6881
83.7095
83.7335
83.7599
83.7883
83.8184
83.8493
83.8802
83.9099
83.9368
83.9592
83.9751
83.9824
83.9788
83.9617
83.9288
83.8777
83.8058
83.7091
83.5763
83.3657
82.9482
82.1662
82.5692
5443.1
-509.276
-456.513
-140.061
9.0366
69.1755
95.9837
110.783
120.57
127.527
132.367
135.393
136.812
136.821
135.629
133.451
130.502
126.989
123.105
119.02
114.885
110.822
106.928
103.277
99.9176
96.8798
94.1757
91.8039
89.7519
87.9995
86.5214
85.2893
84.2739
83.4461
82.7783
82.2452
81.8237
81.4938
81.2379
81.0413
80.8916
80.7785
80.6939
80.6312
80.585
80.5513
80.5268
80.5093
80.4968
80.4879
80.4817
80.4774
80.4745
80.4725
80.4711
80.4703
80.4698
80.4696
80.4696
80.4698
80.4702
80.4708
80.4717
80.4729
80.4745
80.4765
80.4792
80.4826
80.487
80.4924
80.4991
80.5073
80.5173
80.5292
80.5434
80.5601
80.5793
80.6013
80.626
80.6535
80.6834
80.7154
80.749
80.7832
80.8172
80.8495
80.8787
80.9029
80.9203
80.9288
80.9262
80.9103
80.879
80.8302
80.7605
80.6597
80.4877
80.1105
79.3343
79.864
5443.19
-509.021
-456.105
-139.526
9.66705
69.8635
96.6869
111.457
121.168
128.006
132.685
135.513
136.702
136.457
134.992
132.529
129.29
125.488
121.321
116.965
112.574
108.272
104.16
100.311
96.7751
93.5815
90.7417
88.2529
86.1013
84.2649
82.7169
81.427
80.3643
79.4983
78.8
78.2426
77.802
77.4572
77.1898
76.9844
76.828
76.7099
76.6215
76.556
76.5077
76.4725
76.447
76.4287
76.4157
76.4064
76.3999
76.3954
76.3923
76.3902
76.3888
76.388
76.3874
76.3872
76.3872
76.3873
76.3877
76.3883
76.3892
76.3903
76.3919
76.3939
76.3966
76.3999
76.4042
76.4095
76.4161
76.4242
76.4341
76.446
76.4602
76.4768
76.4962
76.5184
76.5436
76.5718
76.6028
76.6364
76.672
76.7092
76.747
76.7842
76.8197
76.8518
76.879
76.8993
76.9109
76.912
76.9007
76.8752
76.8326
76.7638
76.6308
76.2984
75.5499
76.1745
5443.22
-508.937
-455.979
-139.377
9.81291
69.9766
96.7341
111.403
120.979
127.646
132.125
134.724
135.662
135.149
133.404
130.656
127.132
123.05
118.612
113.999
109.366
104.841
100.526
96.4935
92.7945
89.4576
86.4932
83.8975
81.6549
79.7422
78.1304
76.7881
75.6827
74.7821
74.0561
73.4768
73.019
72.6607
72.383
72.1696
72.0072
71.8846
71.7928
71.7248
71.6747
71.6381
71.6117
71.5926
71.5791
71.5695
71.5628
71.5581
71.5549
71.5527
71.5512
71.5503
71.5498
71.5495
71.5494
71.5496
71.55
71.5505
71.5513
71.5525
71.554
71.5559
71.5585
71.5617
71.5659
71.5711
71.5775
71.5854
71.5951
71.6068
71.6207
71.6372
71.6564
71.6786
71.704
71.7325
71.7641
71.7988
71.8361
71.8755
71.9165
71.958
71.9991
72.0383
72.0744
72.1058
72.131
72.1482
72.1561
72.1531
72.1367
72.0989
72.0039
71.7186
71.0149
71.7051
5443.2
-508.994
-456.083
-139.546
9.56058
69.6182
96.2445
110.756
120.148
126.607
130.854
133.204
133.878
133.09
131.066
128.037
124.236
119.886
115.191
110.336
105.477
100.745
96.2415
92.0405
88.1921
84.7243
81.6466
78.9537
76.6288
74.6469
72.9777
71.5882
70.4443
69.5126
68.7618
68.1628
67.6895
67.3192
67.0322
66.8118
66.6439
66.5173
66.4225
66.3522
66.3005
66.2628
66.2354
66.2158
66.2018
66.1919
66.1849
66.1801
66.1768
66.1745
66.173
66.172
66.1715
66.1712
66.1711
66.1712
66.1716
66.1721
66.1729
66.1739
66.1754
66.1772
66.1797
66.1828
66.1868
66.1917
66.198
66.2056
66.215
66.2263
66.2399
66.256
66.2749
66.2968
66.3219
66.3504
66.3822
66.4174
66.4558
66.4969
66.5403
66.5852
66.6309
66.6763
66.7203
66.7615
66.7988
66.8308
66.8564
66.8742
66.8822
66.8734
66.8142
66.5764
65.9299
66.6588
5443.14
-509.163
-456.372
-139.966
8.99431
68.8892
95.3344
109.646
118.819
125.043
129.04
131.128
131.531
130.468
128.168
124.868
120.802
116.197
111.261
106.18
101.112
96.1894
91.5133
87.1584
83.1743
79.5879
76.4078
73.6273
71.2283
69.1844
67.4638
66.032
64.8536
63.8943
63.1213
62.5048
62.0178
61.6369
61.3416
61.1148
60.9422
60.812
60.7146
60.6423
60.5891
60.5503
60.5222
60.502
60.4876
60.4774
60.4703
60.4653
60.4619
60.4596
60.458
60.457
60.4564
60.4561
60.456
60.4561
60.4564
60.4569
60.4576
60.4586
60.46
60.4617
60.464
60.467
60.4707
60.4755
60.4814
60.4887
60.4977
60.5086
60.5216
60.5372
60.5555
60.5768
60.6015
60.6295
60.6612
60.6964
60.7351
60.7772
60.8222
60.8697
60.919
60.9693
61.0197
61.0693
61.117
61.1619
61.2029
61.2392
61.2691
61.2864
61.2599
61.0684
60.4867
61.2309
5443.06
-509.415
-456.798
-140.575
8.19341
67.8843
94.1131
108.195
117.127
123.098
126.835
128.656
128.789
127.456
124.89
121.33
117.014
112.171
107.01
101.72
96.4611
91.3641
86.5314
82.0373
77.9306
74.2376
70.9657
68.1069
65.6418
63.5426
61.7762
60.3069
59.0981
58.1142
57.3217
56.6897
56.1906
55.8002
55.4976
55.2653
55.0885
54.9551
54.8553
54.7813
54.7268
54.6871
54.6583
54.6376
54.6229
54.6125
54.6052
54.6001
54.5966
54.5942
54.5926
54.5915
54.5909
54.5906
54.5904
54.5905
54.5908
54.5912
54.5919
54.5928
54.5941
54.5958
54.5979
54.6007
54.6042
54.6087
54.6143
54.6212
54.6296
54.64
54.6524
54.6673
54.6848
54.7054
54.7292
54.7565
54.7875
54.8223
54.8609
54.9031
54.9489
54.9979
55.0496
55.1035
55.1589
55.215
55.2712
55.3267
55.3808
55.4328
55.4814
55.5211
55.5236
55.3757
54.8626
55.602
5442.96
-509.727
-457.321
-141.315
7.23016
66.6901
92.6799
106.515
115.194
120.906
124.379
125.935
125.805
124.213
121.393
117.588
113.038
107.974
102.607
97.1264
91.6929
86.4382
81.4643
76.8452
72.6289
68.8408
65.4872
62.5589
60.0353
57.8872
56.0805
54.5781
53.3425
52.337
51.5273
50.8817
50.372
49.9733
49.6644
49.4273
49.2468
49.1106
49.0088
48.9332
48.8776
48.8371
48.8077
48.7866
48.7716
48.7609
48.7535
48.7483
48.7447
48.7423
48.7406
48.7396
48.7389
48.7385
48.7384
48.7384
48.7387
48.7391
48.7397
48.7405
48.7417
48.7432
48.7452
48.7478
48.7511
48.7552
48.7604
48.7669
48.7748
48.7845
48.7962
48.8103
48.8269
48.8465
48.8693
48.8955
48.9255
48.9593
48.9972
49.039
49.0847
49.1342
49.1872
49.2433
49.3021
49.363
49.4255
49.4892
49.5535
49.6181
49.6818
49.74
49.7672
49.6593
49.2153
49.9334
5442.84
-510.076
-457.903
-142.135
6.16823
65.3825
91.1223
104.704
113.125
118.579
121.794
123.094
122.712
120.873
117.815
113.782
109.017
103.75
98.1959
92.5426
86.952
81.5558
76.4558
71.7254
67.4119
63.5396
60.1139
57.1244
54.5493
52.3584
50.5163
48.9851
47.726
46.7018
45.877
45.2196
44.7006
44.2948
43.9804
43.739
43.5553
43.4168
43.3131
43.2363
43.1797
43.1385
43.1086
43.0871
43.0718
43.061
43.0534
43.0481
43.0445
43.042
43.0403
43.0392
43.0385
43.0381
43.038
43.038
43.0382
43.0385
43.0391
43.0399
43.0409
43.0423
43.0442
43.0465
43.0496
43.0534
43.0582
43.0641
43.0715
43.0805
43.0914
43.1046
43.1202
43.1386
43.1601
43.185
43.2136
43.2461
43.2827
43.3234
43.3683
43.4174
43.4706
43.5276
43.5881
43.6519
43.7187
43.7881
43.8598
43.9337
44.009
44.0817
44.1289
44.0564
43.6794
44.3633
5442.72
-510.442
-458.514
-142.993
5.06178
64.026
89.5143
102.844
111.013
116.215
119.183
120.239
119.619
117.551
114.273
110.032
105.07
99.6195
93.8957
88.0876
82.3569
76.8349
71.6232
66.7946
62.3955
58.4493
54.9605
51.9175
49.2976
47.0694
45.1965
43.6401
42.3608
41.3203
40.4826
39.8149
39.288
38.8759
38.5568
38.3118
38.1253
37.9847
37.8795
37.8015
37.7441
37.7023
37.672
37.6502
37.6347
37.6237
37.616
37.6106
37.6069
37.6044
37.6027
37.6016
37.6008
37.6004
37.6002
37.6002
37.6004
37.6007
37.6012
37.6019
37.6029
37.6041
37.6058
37.6079
37.6107
37.6142
37.6186
37.624
37.6308
37.6391
37.6491
37.6613
37.6757
37.6929
37.713
37.7364
37.7633
37.7941
37.8289
37.868
37.9115
37.9593
38.0116
38.0682
38.1291
38.1941
38.263
38.3357
38.4122
38.4923
38.5755
38.6585
38.7211
38.6791
38.3651
39.0051
5442.6
-510.81
-459.129
-143.854
3.95517
62.6734
87.9164
101.002
108.929
113.894
116.627
117.457
116.617
114.338
110.859
106.428
101.289
95.6747
89.7999
83.8544
77.9996
72.3669
67.0572
62.1425
57.6687
53.6583
50.1145
47.0252
44.3665
42.106
40.2067
38.6287
37.3319
36.2773
35.4286
34.7522
34.2183
33.801
33.4778
33.2296
33.0409
32.8985
32.792
32.713
32.6549
32.6125
32.5818
32.5598
32.5441
32.533
32.5252
32.5197
32.516
32.5134
32.5117
32.5105
32.5098
32.5094
32.5092
32.5091
32.5093
32.5095
32.51
32.5106
32.5114
32.5126
32.5141
32.516
32.5185
32.5216
32.5256
32.5306
32.5367
32.5442
32.5534
32.5645
32.5778
32.5936
32.6121
32.6338
32.6589
32.6877
32.7205
32.7574
32.7988
32.8447
32.8952
32.9504
33.0102
33.0748
33.144
33.2179
33.2965
33.3798
33.4677
33.5571
33.6308
33.6141
33.3576
33.9471
5442.48
-511.169
-459.726
-144.689
2.88313
61.366
86.3758
99.2308
106.932
111.674
114.192
114.813
113.773
111.302
107.643
103.042
97.7452
91.9852
85.9771
79.9107
73.9474
68.2179
62.8229
57.8336
53.2951
49.2291
45.6381
42.509
39.8169
37.5288
35.6068
34.0104
32.6986
31.6322
30.7739
30.09
29.5504
29.1286
28.8018
28.5511
28.3603
28.2164
28.1088
28.029
27.9703
27.9275
27.8965
27.8742
27.8583
27.8471
27.8392
27.8337
27.8299
27.8273
27.8256
27.8244
27.8237
27.8232
27.823
27.8229
27.823
27.8233
27.8236
27.8242
27.8249
27.826
27.8273
27.829
27.8312
27.834
27.8376
27.842
27.8476
27.8543
27.8626
27.8727
27.8847
27.8991
27.916
27.9359
27.959
27.9856
28.016
28.0505
28.0893
28.1326
28.1806
28.2335
28.2912
28.3539
28.4218
